Polar Angle 	 Azimuth Angle 	 Intensity 
90.0	45.0	116.1759
89.0	45.0	115.4386
88.0	45.0	114.8891
87.00000000000001	45.0	114.5419
86.0	45.0	114.4011
85.0	45.0	114.4603
84.0	45.0	114.7023
83.0	45.0	115.1003
82.0	45.0	115.6188
81.0	45.0	116.2147
80.0	45.0	116.8397
79.0	45.0	117.4417
78.00000000000001	45.0	117.9672
77.0	45.0	118.3635
76.0	45.0	118.5806
75.0	45.0	118.5739
74.0	45.0	118.3052
73.0	45.0	117.7451
72.0	45.0	116.8735
71.0	45.0	115.681
70.0	45.0	114.169
69.00000000000001	45.0	112.3499
68.0	45.0	110.2463
67.0	45.0	107.8908
66.0	45.0	105.324
65.0	45.0	102.5936
64.0	45.0	99.7524
63.0	45.0	96.8564
62.0	45.0	93.9629
61.0	45.0	91.1283
60.00000000000001	45.0	88.4068
59.00000000000001	45.0	85.8479
58.00000000000001	45.0	83.4956
57.00000000000001	45.0	81.3869
55.99999999999999	45.0	79.5513
55.00000000000001	45.0	78.01
54.0	45.0	76.7761
53.00000000000001	45.0	75.8548
52.0	45.0	75.244
51.00000000000001	45.0	74.9353
50.00000000000001	45.0	74.9155
49.00000000000001	45.0	75.1671
48.0	45.0	75.6707
47.0	45.0	76.4059
46.00000000000001	45.0	77.3527
45.0	45.0	78.493
44.0	45.0	79.8116
43.0	45.0	81.2968
42.0	45.0	82.9411
41.0	45.0	84.7412
40.00000000000001	45.0	86.6978
39.0	45.0	88.8153
37.99999999999999	45.0	91.1006
37.0	45.0	93.5621
36.0	45.0	96.2087
35.0	45.0	99.0478
34.0	45.0	102.0841
33.0	45.0	105.3179
31.99999999999999	45.0	108.7439
31.0	45.0	112.35
30.000000000000004	45.0	116.116
29.00000000000001	45.0	120.0135
28.000000000000007	45.0	124.0052
27.00000000000001	45.0	128.0454
25.999999999999996	45.0	132.0809
25.000000000000004	45.0	136.0513
24.000000000000004	45.0	139.8915
22.999999999999993	45.0	143.5328
21.999999999999996	45.0	146.9056
21.0	45.0	149.9415
20.00000000000001	45.0	152.5762
19.000000000000014	45.0	154.7516
18.00000000000001	45.0	156.4189
17.000000000000007	45.0	157.5407
15.999999999999995	45.0	158.0927
14.999999999999996	45.0	158.0661
14.0	45.0	157.4681
12.999999999999996	45.0	156.3229
12.000000000000018	45.0	154.6717
10.999999999999993	45.0	152.572
10.000000000000012	45.0	150.0965
8.999999999999984	45.0	147.3316
7.999999999999981	45.0	144.3744
7.000000000000025	45.0	141.3305
6.000000000000026	45.0	138.3106
4.999999999999992	45.0	135.4268
4.000000000000042	45.0	132.7893
3.0000000000000444	45.0	130.5024
1.9999999999999472	45.0	128.6611
0.9999999999999002	45.0	127.3479
0.0	45.0	126.6294
0.9999999999999002	225.0	126.5542
1.9999999999999472	225.0	127.1509
3.0000000000000444	225.0	128.4267
4.000000000000042	225.0	130.3668
4.999999999999992	225.0	132.935
6.000000000000026	225.0	136.0739
6.9999999999999725	225.0	139.7072
7.999999999999981	225.0	143.7417
8.999999999999984	225.0	148.07
10.000000000000012	225.0	152.5741
10.999999999999993	225.0	157.1289
11.999999999999988	225.0	161.6063
12.999999999999996	225.0	165.879
14.0	225.0	169.8247
14.999999999999996	225.0	173.3297
15.999999999999995	225.0	176.2925
16.99999999999999	225.0	178.6266
17.999999999999986	225.0	180.2632
18.999999999999996	225.0	181.1529
19.999999999999993	225.0	181.267
21.0	225.0	180.5977
21.999999999999996	225.0	179.1583
23.00000000000001	225.0	176.9816
24.000000000000004	225.0	174.1191
24.99999999999999	225.0	170.6381
26.000000000000007	225.0	166.6196
26.999999999999996	225.0	162.155
28.000000000000007	225.0	157.3429
28.999999999999996	225.0	152.2861
29.999999999999993	225.0	147.0875
31.0	225.0	141.8478
31.99999999999999	225.0	136.6616
33.0	225.0	131.6155
34.0	225.0	126.7856
35.000000000000014	225.0	122.2357
36.0	225.0	118.0165
37.000000000000014	225.0	114.1648
37.99999999999999	225.0	110.7036
38.99999999999999	225.0	107.6426
40.00000000000001	225.0	104.9791
40.999999999999986	225.0	102.6999
42.0	225.0	100.7826
43.0	225.0	99.1978
44.00000000000001	225.0	97.9114
45.0	225.0	96.8866
46.000000000000014	225.0	96.0865
47.0	225.0	95.4755
47.999999999999986	225.0	95.0214
49.00000000000001	225.0	94.6969
49.99999999999999	225.0	94.4803
51.00000000000001	225.0	94.3567
51.99999999999999	225.0	94.3176
53.000000000000014	225.0	94.3612
53.99999999999999	225.0	94.4918
55.000000000000014	225.0	94.7184
55.99999999999999	225.0	95.0539
56.999999999999986	225.0	95.5136
58.00000000000001	225.0	96.1136
58.99999999999999	225.0	96.869
60.00000000000001	225.0	97.7924
61.0	225.0	98.8926
62.000000000000014	225.0	100.1731
63.0	225.0	101.6312
64.00000000000001	225.0	103.2571
65.0	225.0	105.0342
65.99999999999999	225.0	106.9383
67.0	225.0	108.9388
68.0	225.0	110.9992
69.00000000000001	225.0	113.0781
70.0	225.0	115.1311
71.00000000000001	225.0	117.1119
72.0	225.0	118.9748
73.00000000000001	225.0	120.6757
74.0	225.0	122.1746
74.99999999999999	225.0	123.4372
76.0	225.0	124.436
77.0	225.0	125.1522
78.00000000000001	225.0	125.5761
79.0	225.0	125.7079
80.00000000000001	225.0	125.5575
81.0	225.0	125.1449
82.00000000000001	225.0	124.4987
83.0	225.0	123.6555
83.99999999999999	225.0	122.6581
85.0	225.0	121.5542
86.0	225.0	120.3941
87.00000000000001	225.0	119.2288
88.0	225.0	118.1077
89.00000000000001	225.0	117.0766
90.0	225.0	116.1759
91.00000000000001	225.0	115.4386
92.0	225.0	114.8891
92.99999999999999	225.0	114.5419
94.0	225.0	114.4011
95.0	225.0	114.4603
96.00000000000001	225.0	114.7023
97.0	225.0	115.1003
98.00000000000001	225.0	115.6188
99.0	225.0	116.2147
100.00000000000001	225.0	116.8397
101.0	225.0	117.4417
102.00000000000001	225.0	117.9672
103.0	225.0	118.3635
104.0	225.0	118.5806
105.00000000000001	225.0	118.5739
106.0	225.0	118.3052
107.00000000000001	225.0	117.7451
108.0	225.0	116.8735
109.00000000000001	225.0	115.681
110.0	225.0	114.169
111.00000000000001	225.0	112.3499
112.0	225.0	110.2463
113.0	225.0	107.8908
114.00000000000001	225.0	105.324
115.0	225.0	102.5936
116.00000000000001	225.0	99.7524
117.0	225.0	96.8564
118.00000000000001	225.0	93.9629
119.0	225.0	91.1283
120.00000000000001	225.0	88.4068
121.0	225.0	85.8479
122.0	225.0	83.4956
123.00000000000001	225.0	81.3869
124.0	225.0	79.5513
125.00000000000001	225.0	78.01
126.0	225.0	76.7761
127.00000000000001	225.0	75.8548
128.0	225.0	75.244
129.00000000000003	225.0	74.9353
130.0	225.0	74.9155
131.0	225.0	75.1671
132.0	225.0	75.6707
133.0	225.0	76.4059
134.0	225.0	77.3527
135.0	225.0	78.493
136.0	225.0	79.8116
137.0	225.0	81.2968
138.00000000000003	225.0	82.9411
139.0	225.0	84.7412
140.0	225.0	86.6978
140.99999999999997	225.0	88.8153
142.00000000000003	225.0	91.1006
143.0	225.0	93.5621
144.0	225.0	96.2087
145.0	225.0	99.0478
146.00000000000003	225.0	102.0841
147.00000000000003	225.0	105.3179
148.0	225.0	108.7439
149.0	225.0	112.35
149.99999999999997	225.0	116.116
151.00000000000003	225.0	120.0135
152.0	225.0	124.0052
153.0	225.0	128.0454
154.0	225.0	132.0809
155.00000000000003	225.0	136.0513
156.00000000000003	225.0	139.8915
157.0	225.0	143.5328
158.0	225.0	146.9056
158.99999999999997	225.0	149.9415
160.00000000000003	225.0	152.5762
161.0	225.0	154.7516
162.0	225.0	156.4189
163.0	225.0	157.5407
164.00000000000003	225.0	158.0927
165.00000000000003	225.0	158.0661
166.0	225.0	157.4681
167.0	225.0	156.3229
167.99999999999997	225.0	154.6717
169.00000000000003	225.0	152.572
169.99999999999997	225.0	150.0965
170.99999999999997	225.0	147.3316
172.0	225.0	144.3744
173.00000000000003	225.0	141.3305
174.00000000000003	225.0	138.3106
175.0	225.0	135.4268
175.99999999999997	225.0	132.7893
176.99999999999994	225.0	130.5024
178.00000000000006	225.0	128.6611
179.0000000000001	225.0	127.3479
180.0	225.0	126.6294
179.0000000000001	45.0	126.5542
178.00000000000006	45.0	127.1509
176.99999999999994	45.0	128.4267
176.00000000000006	45.0	130.3668
175.0	45.0	132.935
174.00000000000003	45.0	136.0739
172.99999999999997	45.0	139.7072
172.0	45.0	143.7417
171.00000000000003	45.0	148.07
170.00000000000003	45.0	152.5741
168.99999999999997	45.0	157.1289
167.99999999999997	45.0	161.6063
167.00000000000003	45.0	165.879
166.00000000000003	45.0	169.8247
165.00000000000003	45.0	173.3297
163.99999999999997	45.0	176.2925
163.0	45.0	178.6266
162.00000000000003	45.0	180.2632
161.00000000000003	45.0	181.1529
160.0	45.0	181.267
159.0	45.0	180.5977
158.00000000000003	45.0	179.1583
157.00000000000003	45.0	176.9816
156.00000000000003	45.0	174.1191
154.99999999999997	45.0	170.6381
154.0	45.0	166.6196
153.00000000000003	45.0	162.155
152.0	45.0	157.3429
150.99999999999997	45.0	152.2861
150.0	45.0	147.0875
149.0	45.0	141.8478
148.0	45.0	136.6616
147.00000000000003	45.0	131.6155
146.0	45.0	126.7856
145.0	45.0	122.2357
144.00000000000003	45.0	118.0165
143.0	45.0	114.1648
142.0	45.0	110.7036
140.99999999999997	45.0	107.6426
140.00000000000003	45.0	104.9791
139.00000000000003	45.0	102.6999
138.00000000000003	45.0	100.7826
137.0	45.0	99.1978
136.0	45.0	97.9114
135.00000000000003	45.0	96.8866
134.00000000000003	45.0	96.0865
132.99999999999997	45.0	95.4755
131.99999999999997	45.0	95.0214
131.00000000000003	45.0	94.6969
130.00000000000003	45.0	94.4803
129.00000000000003	45.0	94.3567
128.0	45.0	94.3176
126.99999999999999	45.0	94.3612
126.00000000000003	45.0	94.4918
125.00000000000004	45.0	94.7184
123.99999999999997	45.0	95.0539
122.99999999999999	45.0	95.5136
122.0	45.0	96.1136
121.0	45.0	96.869
120.00000000000001	45.0	97.7924
119.0	45.0	98.8926
118.00000000000001	45.0	100.1731
117.00000000000003	45.0	101.6312
116.00000000000004	45.0	103.2571
115.0	45.0	105.0342
114.00000000000001	45.0	106.9383
113.00000000000001	45.0	108.9388
112.00000000000003	45.0	110.9992
111.00000000000004	45.0	113.0781
110.0	45.0	115.1311
109.00000000000001	45.0	117.1119
108.00000000000003	45.0	118.9748
107.00000000000004	45.0	120.6757
106.0	45.0	122.1746
105.0	45.0	123.4372
104.00000000000001	45.0	124.436
103.00000000000001	45.0	125.1522
102.00000000000003	45.0	125.5761
100.99999999999999	45.0	125.7079
100.0	45.0	125.5575
99.00000000000001	45.0	125.1449
98.00000000000003	45.0	124.4987
96.99999999999999	45.0	123.6555
96.0	45.0	122.6581
95.0	45.0	121.5542
94.00000000000001	45.0	120.3941
93.00000000000003	45.0	119.2288
91.99999999999999	45.0	118.1077
91.0	45.0	117.0766
90.0	0.0	126.8961
89.29291116952395	0.7071426817872533	126.8013
88.58593006627854	1.4145007934175506	126.8768
87.87916453235917	2.122289895867879	127.1385
87.1727226397129	2.8307258121018455	127.597
86.4667128053692	3.540024757356371	128.2558
85.76124390703504	4.250403468570711	129.1118
85.05642539917308	4.962079332655645	130.1536
84.3523674296794	5.675270513286652	131.3624
83.64918095727445	6.390196075887154	132.7113
82.94697786971682	7.107076110446535	134.1659
82.24587110294536	7.826131851792348	135.6849
81.54597476125012	8.547585796906942	137.2209
80.84740423856572	9.271661818845425	138.722
80.15027634097487	9.998585276774412	140.1325
79.45470941050044	10.728583121609057	141.3953
78.76082345025607	11.461883996679509	142.4532
78.0687402510143	12.198718332806749	143.2511
77.37858351923944	12.939318437111838	143.7378
76.69047900661849	13.683918574821595	143.8678
76.00455464110858	14.432755043267381	143.6037
75.32094065950206	15.186066237202516	142.917
74.63976974149092	15.944092704486447	141.7901
73.96117714519126	16.707077191101824	140.2171
73.28530084406378	17.47526467438212	138.2048
72.61228166514054	18.2489023832344	135.7727
71.94226342843773	19.028239804042187	132.9532
71.27539308740191	19.813528670829413	129.7907
70.61182087020094	20.605022938156644	126.3412
69.95170042163069	21.402978735106455	122.6701
69.29518894536457	22.207654298596484	118.8513
68.64244734622547	23.019309884136224	114.9645
67.99364037210603	23.838207652018653	111.093
67.34893675510656	24.664611526811417	107.3213
66.70850935139694	25.498787027884514	103.7323
66.07253527924108	26.34100106858589	100.4047
65.44119605454999	27.191521721553002	97.4106
64.81467772324949	28.05061794753063	94.8127
64.19317098966519	28.918559284955432	92.6626
63.57687134003648	29.79561549746857	90.9991
62.965979160175145	30.68205617643342	89.8465
62.36069984618289	31.5781502954692	89.2138
61.761243907035045	32.484165713968785	89.0948
61.16782705772538	33.400368626554155	89.4678
60.58067030155157	34.32702295544232	90.2964
59.99999999999999	35.264389682754654	91.5308
59.42604792856702	36.212726119908915	93.1097
58.8590513167294	37.17228511139536	94.962
58.29925287015328	38.143314170462425	97.0096
57.74690077310915	39.12605454453247	99.1697
57.20224866894282	40.12074020854298	101.3582
56.66555561634145	41.12759678487194	103.4924
56.13708601903233	42.14684038906587	105.4937
55.61710952646371	43.178676401255004	107.2905
55.10590090294487	44.223298163918535	108.8208
54.60373986267208	45.28088560756104	110.0339
54.11091086804023	46.3516038068849	110.8926
53.62770288864506	47.435601471194154	111.3742
53.154409118419395	48.53300937404573	111.4711
52.691326648427214	49.643938728569864	111.1911
52.23875609296496	50.76847951640774	110.557
51.79700116679687	51.90669877984987	109.6054
51.36636821158484	53.05863888848747	108.3853
50.94716566986906	54.22431579349069	106.9565
50.539703505316	55.40371728447302	105.3868
50.14429256838126	56.59680126575802	103.7499
49.76124390703504	57.80349407069134	102.1222
49.390868022772075	59.02368883439022	100.58
49.03347407277117	60.25724394694163	99.197
48.68936901978189	61.503981610489745	98.0412
48.35885673209022	62.76368652482927	97.1726
48.04223703674405	64.03610472697835	96.6407
47.73980473009234	65.32094261067617	96.4833
47.45184855059514	66.61786615176922	96.7247
47.178650119779434	67.92650036495783	97.3748
46.920482858129056	69.2464290163152	98.4295
46.677610883583455	70.57719461432482	99.8701
46.450287901158305	71.91829869987819	101.6648
46.23875609296496	73.2692024527246	103.7695
46.043245018569806	74.62932762827676	106.1298
45.86397053617525	75.99805783448308	108.683
45.701133755495384	77.37474015373697	111.3604
45.554920033420714	78.7586871095844	114.09
45.42549802359849	80.14917897242118	116.7989
45.31301879088406	81.5454663925662	119.4164
45.21761500123496	82.94677334320139	121.876
45.1394001970194	84.35230034984485	124.118
45.07846816689916	85.76122797743554	126.0918
45.03489241843145	87.17272054092642	127.757
45.00872576033472	88.58593000067151	129.0851
45.0	90.0	130.06
45.00872576033472	91.41406999932849	130.6787
45.03489241843145	92.82727945907358	130.9505
45.07846816689916	94.23877202256445	130.897
45.1394001970194	95.64769965015516	130.5504
45.21761500123496	97.05322665679864	129.9525
45.31301879088406	98.45453360743382	129.1523
45.42549802359848	99.85082102757882	128.2045
45.554920033420714	101.2413128904156	127.1669
45.701133755495384	102.62525984626303	126.0981
45.86397053617525	104.00194216551692	125.0552
46.043245018569806	105.37067237172324	124.0917
46.238756092964955	106.73079754727539	123.2554
46.450287901158305	108.08170130012182	122.5864
46.677610883583455	109.42280538567519	122.1162
46.920482858129056	110.7535709836848	121.866
47.178650119779434	112.07349963504215	121.8464
47.45184855059512	113.38213384823077	122.0575
47.73980473009234	114.67905738932384	122.4881
48.04223703674405	115.96389527302166	123.1175
48.3588567320902	117.23631347517073	123.9155
48.68936901978189	118.49601838951025	124.8444
49.03347407277117	119.74275605305839	125.8603
49.39086802277208	120.9763111656098	126.9147
49.76124390703504	122.19650592930867	127.9571
50.14429256838125	123.40319873424197	128.9361
50.539703505316005	124.59628271552698	129.8022
50.94716566986905	125.77568420650928	130.5092
51.36636821158484	126.94136111151253	131.0159
51.79700116679685	128.09330122015012	131.288
52.23875609296496	129.23152048359225	131.2988
52.691326648427214	130.35606127143015	131.0305
53.154409118419395	131.46699062595425	130.4746
53.62770288864506	132.56439852880584	129.632
54.11091086804023	133.64839619311508	128.5131
54.60373986267208	134.71911439243897	127.1373
55.10590090294487	135.7767018360815	125.5319
55.617109526463715	136.821323598745	123.7315
56.13708601903233	137.8531596109341	121.7767
56.66555561634144	138.87240321512806	119.7124
57.20224866894282	139.879259791457	117.5865
57.74690077310915	140.87394545546752	115.4483
58.29925287015328	141.85668582953758	113.3469
58.8590513167294	142.82771488860465	111.3299
59.42604792856702	143.7872738800911	109.4419
59.99999999999999	144.73561031724535	107.7233
60.58067030155157	145.6729770445577	106.2092
61.16782705772538	146.59963137344585	104.9289
61.76124390703503	147.5158342860312	103.9053
62.36069984618289	148.4218497045308	103.1544
62.96597916017513	149.31794382356657	102.6851
63.57687134003648	150.20438450253144	102.4999
64.19317098966519	151.08144071504458	102.5949
64.81467772324949	151.9493820524694	102.9602
65.44119605454999	152.808478278447	103.5807
66.0725352792411	153.65899893141415	104.4369
66.70850935139694	154.5012129721155	105.5055
67.34893675510656	155.3353884731886	106.7607
67.99364037210603	156.16179234798136	108.1743
68.64244734622547	156.98069011586378	109.7171
69.29518894536457	157.79234570140352	111.3595
69.95170042163069	158.59702126489356	113.0719
70.61182087020094	159.39497706184335	114.8256
71.2753930874019	160.1864713291706	116.5929
71.94226342843773	160.9717601959578	118.3478
72.61228166514054	161.7510976167656	120.066
73.28530084406377	162.52473532561788	121.7252
73.96117714519126	163.29292280889817	123.3053
74.63976974149092	164.05590729551355	124.7882
75.32094065950206	164.8139337627975	126.1581
76.00455464110858	165.56724495673262	127.4014
76.6904790066185	166.31608142517842	128.5067
77.37858351923944	167.06068156288816	129.4649
78.0687402510143	167.80128166719328	130.2693
78.76082345025605	168.5381160033205	130.9155
79.45470941050044	169.27141687839094	131.4015
80.15027634097487	170.0014147232256	131.7281
80.84740423856572	170.72833818115458	131.899
81.54597476125012	171.45241420309307	131.9206
82.24587110294536	172.17386814820765	131.8024
82.94697786971682	172.8929238895535	131.5573
83.64918095727445	173.60980392411287	131.201
84.3523674296794	174.32472948671335	130.7525
85.05642539917308	175.03792066734437	130.2337
85.76124390703502	175.7495965314293	129.6691
86.4667128053692	176.45997524264365	129.0856
87.17272263971289	177.16927418789817	128.5114
87.87916453235917	177.87771010413212	127.9762
88.58593006627854	178.58549920658245	127.5095
89.29291116952395	179.29285731821275	127.1404
90.0	180.0	126.8961
90.70708883047607	180.70714268178725	126.8013
91.41406993372146	181.41450079341755	126.8768
92.12083546764083	182.12228989586788	127.1385
92.82727736028711	182.83072581210183	127.597
93.5332871946308	183.54002475735635	128.2558
94.23875609296496	184.2504034685707	129.1118
94.94357460082692	184.96207933265563	130.1536
95.64763257032061	185.67527051328665	131.3624
96.35081904272555	186.39019607588713	132.7113
97.05302213028318	187.1070761104465	134.1659
97.75412889705464	187.82613185179233	135.6849
98.45402523874989	188.54758579690696	137.2209
99.15259576143428	189.27166181884542	138.722
99.84972365902512	189.9985852767744	140.1325
100.54529058949956	190.72858312160906	141.3953
101.23917654974393	191.4618839966795	142.4532
101.93125974898571	192.19871833280675	143.2511
102.62141648076054	192.93931843711184	143.7378
103.30952099338153	193.68391857482158	143.8678
103.99544535889142	194.43275504326738	143.6037
104.67905934049796	195.18606623720254	142.917
105.36023025850908	195.94409270448645	141.7901
106.03882285480874	196.7070771911018	140.2171
106.71469915593623	197.4752646743821	138.2048
107.38771833485946	198.2489023832344	135.7727
108.05773657156229	199.0282398040422	132.9532
108.7246069125981	199.8135286708294	129.7907
109.38817912979906	200.60502293815665	126.3412
110.04829957836931	201.40297873510644	122.6701
110.70481105463544	202.20765429859648	118.8513
111.35755265377453	203.01930988413622	114.9645
112.00635962789397	203.83820765201864	111.093
112.65106324489344	204.6646115268114	107.3213
113.29149064860306	205.49878702788448	103.7323
113.92746472075892	206.34100106858588	100.4047
114.55880394545001	207.191521721553	97.4106
115.18532227675053	208.05061794753064	94.8127
115.8068290103348	208.91855928495542	92.6626
116.42312865996352	209.79561549746856	90.9991
117.03402083982486	210.68205617643343	89.8465
117.63930015381712	211.5781502954692	89.2138
118.23875609296496	212.48416571396876	89.0948
118.83217294227461	213.40036862655413	89.4678
119.41932969844842	214.32702295544232	90.2964
120.00000000000001	215.26438968275463	91.5308
120.573952071433	216.2127261199089	93.1097
121.14094868327061	217.17228511139535	94.962
121.70074712984672	218.14331417046245	97.0096
122.25309922689084	219.12605454453248	99.1697
122.79775133105717	220.12074020854297	101.3582
123.33444438365854	221.1275967848719	103.4924
123.86291398096766	222.1468403890659	105.4937
124.38289047353629	223.17867640125502	107.2905
124.89409909705513	224.2232981639185	108.8208
125.39626013732791	225.28088560756103	110.0339
125.88908913195978	226.35160380688492	110.8926
126.37229711135494	227.43560147119416	111.3742
126.84559088158062	228.53300937404572	111.4711
127.30867335157278	229.64393872856982	111.1911
127.76124390703504	230.7684795164077	110.557
128.20299883320317	231.90669877984988	109.6054
128.6336317884152	233.05863888848748	108.3853
129.05283433013093	234.2243157934907	106.9565
129.460296494684	235.40371728447298	105.3868
129.85570743161875	236.59680126575802	103.7499
130.23875609296496	237.80349407069136	102.1222
130.60913197722795	239.0236888343902	100.58
130.96652592722884	240.25724394694157	99.197
131.31063098021812	241.50398161048972	98.0412
131.6411432679098	242.7636865248293	97.1726
131.95776296325596	244.03610472697835	96.6407
132.26019526990768	245.32094261067616	96.4833
132.54815144940486	246.6178661517692	96.7247
132.8213498802206	247.92650036495786	97.3748
133.07951714187095	249.2464290163152	98.4295
133.32238911641656	250.5771946143248	99.8701
133.5497120988417	251.91829869987816	101.6648
133.76124390703504	253.26920245272458	103.7695
133.9567549814302	254.62932762827677	106.1298
134.13602946382477	255.99805783448306	108.683
134.2988662445046	257.374740153737	111.3604
134.44507996657927	258.75868710958434	114.09
134.57450197640154	260.14917897242117	116.7989
134.68698120911597	261.5454663925662	119.4164
134.78238499876502	262.94677334320136	121.876
134.8605998029806	264.3523003498448	124.118
134.92153183310086	265.7612279774355	126.0918
134.96510758156856	267.17272054092643	127.757
134.99127423966527	268.5859300006715	129.0851
135.0	270.0	130.06
134.99127423966527	271.4140699993285	130.6787
134.96510758156856	272.82727945907357	130.9505
134.92153183310086	274.2387720225645	130.897
134.8605998029806	275.6476996501551	130.5504
134.78238499876502	277.0532266567986	129.9525
134.68698120911597	278.45453360743375	129.1523
134.57450197640154	279.85082102757883	128.2045
134.44507996657927	281.2413128904156	127.1669
134.2988662445046	282.625259846263	126.0981
134.13602946382477	284.0019421655169	125.0552
133.9567549814302	285.37067237172323	124.0917
133.76124390703504	286.7307975472754	123.2554
133.5497120988417	288.08170130012184	122.5864
133.32238911641656	289.42280538567513	122.1162
133.07951714187095	290.75357098368477	121.866
132.82134988022057	292.0734996350422	121.8464
132.54815144940488	293.38213384823075	122.0575
132.26019526990768	294.6790573893238	122.4881
131.95776296325596	295.9638952730216	123.1175
131.6411432679098	297.23631347517073	123.9155
131.31063098021812	298.49601838951025	124.8444
130.96652592722884	299.7427560530584	125.8603
130.60913197722795	300.9763111656098	126.9147
130.23875609296496	302.1965059293086	127.9571
129.85570743161873	303.403198734242	128.9361
129.46029649468403	304.59628271552697	129.8022
129.05283433013096	305.7756842065093	130.5092
128.6336317884152	306.9413611115125	131.0159
128.20299883320317	308.0933012201501	131.288
127.76124390703505	309.23152048359225	131.2988
127.3086733515728	310.3560612714301	131.0305
126.84559088158062	311.4669906259543	130.4746
126.37229711135495	312.5643985288058	129.632
125.88908913195978	313.6483961931151	128.5131
125.39626013732794	314.71911439243894	127.1373
124.89409909705515	315.77670183608143	125.5319
124.38289047353632	316.821323598745	123.7315
123.86291398096766	317.85315961093414	121.7767
123.33444438365856	318.8724032151281	119.7124
122.7977513310572	319.879259791457	117.5865
122.25309922689087	320.8739454554675	115.4483
121.70074712984675	321.8566858295375	113.3469
121.14094868327061	322.82771488860465	111.3299
120.57395207143298	323.7872738800911	109.4419
120.00000000000001	324.73561031724535	107.7233
119.41932969844845	325.6729770445577	106.2092
118.83217294227461	326.59963137344585	104.9289
118.23875609296496	327.51583428603124	103.9053
117.63930015381712	328.4218497045308	103.1544
117.03402083982486	329.31794382356657	102.6851
116.42312865996352	330.2043845025314	102.4999
115.8068290103348	331.08144071504455	102.5949
115.18532227675053	331.9493820524694	102.9602
114.55880394545002	332.808478278447	103.5807
113.92746472075895	333.6589989314141	104.4369
113.29149064860304	334.5012129721155	105.5055
112.65106324489344	335.3353884731886	106.7607
112.00635962789399	336.16179234798136	108.1743
111.35755265377455	336.98069011586375	109.7171
110.70481105463546	337.79234570140346	111.3595
110.04829957836931	338.59702126489356	113.0719
109.38817912979906	339.39497706184335	114.8256
108.7246069125981	340.18647132917056	116.5929
108.05773657156229	340.9717601959578	118.3478
107.38771833485946	341.7510976167656	120.066
106.71469915593623	342.5247353256179	121.7252
106.03882285480876	343.2929228088982	123.3053
105.36023025850909	344.0559072955135	124.7882
104.67905934049797	344.8139337627975	126.1581
103.99544535889142	345.5672449567326	127.4014
103.30952099338151	346.3160814251784	128.5067
102.62141648076056	347.06068156288813	129.4649
101.93125974898572	347.8012816671932	130.2693
101.23917654974393	348.5381160033205	130.9155
100.54529058949956	349.27141687839094	131.4015
99.84972365902513	350.0014147232256	131.7281
99.15259576143428	350.7283381811546	131.899
98.4540252387499	351.45241420309304	131.9206
97.75412889705464	352.17386814820765	131.8024
97.05302213028318	352.89292388955346	131.5573
96.35081904272556	353.60980392411284	131.201
95.64763257032062	354.32472948671335	130.7525
94.94357460082692	355.03792066734434	130.2337
94.23875609296496	355.7495965314293	129.6691
93.53328719463082	356.4599752426436	129.0856
92.82727736028713	357.16927418789817	128.5114
92.12083546764086	357.8777101041321	127.9762
91.41406993372146	358.5854992065825	127.5095
90.70708883047607	359.2928573182127	127.1404
90.0	90.0	67.9347
89.29291116952395	89.29285731821274	67.2813
88.58593006627854	88.58549920658245	66.7505
87.87916453235917	87.87771010413212	66.3615
87.1727226397129	87.16927418789815	66.1344
86.4667128053692	86.45997524264364	66.089
85.76124390703504	85.74959653142929	66.2439
85.05642539917308	85.03792066734437	66.6154
84.3523674296794	84.32472948671335	67.2164
83.64918095727445	83.60980392411285	68.0556
82.94697786971682	82.89292388955346	69.1365
82.24587110294536	82.17386814820766	70.4571
81.54597476125012	81.45241420309306	72.0091
80.84740423856572	80.72833818115458	73.7778
80.15027634097487	80.0014147232256	75.7426
79.45470941050044	79.27141687839094	77.8768
78.76082345025607	78.5381160033205	80.1485
78.0687402510143	77.80128166719327	82.5213
77.37858351923944	77.06068156288816	84.9555
76.69047900661849	76.31608142517841	87.4093
76.00455464110858	75.56724495673262	89.8404
75.32094065950206	74.81393376279749	92.2068
74.63976974149092	74.05590729551355	94.4691
73.96117714519126	73.29292280889818	96.5912
73.28530084406378	72.52473532561788	98.5422
72.61228166514054	71.7510976167656	100.2971
71.94226342843773	70.97176019595781	101.8379
71.27539308740191	70.18647132917059	103.1542
70.61182087020094	69.39497706184336	104.2437
69.95170042163069	68.59702126489356	105.1122
69.29518894536457	67.79234570140352	105.773
68.64244734622547	66.98069011586378	106.2469
67.99364037210603	66.16179234798135	106.5607
67.34893675510656	65.33538847318859	106.7464
66.70850935139694	64.50121297211548	106.8394
66.07253527924108	63.65899893141411	106.8774
65.44119605454999	62.808478278447	106.8984
64.81467772324949	61.94938205246937	106.9391
64.19317098966519	61.081440715044565	107.0327
63.57687134003648	60.20438450253143	107.2083
62.965979160175145	59.31794382356658	107.4884
62.36069984618289	58.4218497045308	107.8884
61.761243907035045	57.515834286031215	108.4153
61.16782705772538	56.59963137344585	109.0674
60.58067030155157	55.67297704455769	109.8341
59.99999999999999	54.735610317245346	110.6955
59.42604792856702	53.787273880091085	111.6238
58.8590513167294	52.827714888604646	112.5835
58.29925287015328	51.85668582953758	113.5331
57.74690077310915	50.87394545546753	114.4262
57.20224866894282	49.87925979145702	115.2136
56.66555561634145	48.87240321512806	115.8452
56.13708601903233	47.85315961093413	116.2717
55.61710952646371	46.821323598745	116.4471
55.10590090294487	45.776701836081465	116.33
54.60373986267208	44.71911439243896	115.8862
54.11091086804023	43.6483961931151	115.0895
53.62770288864506	42.564398528805846	113.9234
53.154409118419395	41.46699062595427	112.3821
52.691326648427214	40.356061271430136	110.4708
52.23875609296496	39.23152048359226	108.2061
51.79700116679687	38.09330122015014	105.6153
51.36636821158484	36.941361111512535	102.7364
50.94716566986906	35.77568420650932	99.6163
50.539703505316	34.59628271552699	96.3099
50.14429256838126	33.40319873424199	92.8779
49.76124390703504	32.19650592930866	89.3855
49.390868022772075	30.976311165609783	85.8994
49.03347407277117	29.742756053058372	82.4864
48.68936901978189	28.496018389510258	79.2108
48.35885673209022	27.236313475170732	76.1323
48.04223703674405	25.963895273021652	73.3041
47.73980473009234	24.679057389323834	70.7714
47.45184855059514	23.382133848230776	68.5698
47.178650119779434	22.07349963504216	66.7244
46.920482858129056	20.753570983684796	65.2491
46.677610883583455	19.422805385675183	64.1465
46.450287901158305	18.08170130012181	63.4081
46.23875609296496	16.730797547275397	63.0152
46.043245018569806	15.370672371723243	62.9392
45.86397053617525	14.001942165516926	63.1441
45.701133755495384	12.625259846263035	63.5872
45.554920033420714	11.241312890415616	64.2214
45.42549802359849	9.850821027578828	64.9972
45.31301879088406	8.454533607433808	65.8648
45.21761500123496	7.053226656798624	66.7762
45.1394001970194	5.647699650155149	67.687
45.07846816689916	4.238772022564465	68.5581
45.03489241843145	2.8272794590735852	69.3576
45.00872576033472	1.414069999328503	70.0616
45.0	4.961562726608714e-15	70.6554
45.00872576033472	358.5859300006715	71.1335
45.03489241843145	357.17272054092643	71.5002
45.07846816689916	355.76122797743557	71.7689
45.1394001970194	354.3523003498448	71.9613
45.21761500123496	352.94677334320136	72.1067
45.31301879088406	351.5454663925662	72.2404
45.42549802359848	350.14917897242117	72.402
45.554920033420714	348.7586871095844	72.6339
45.701133755495384	347.374740153737	72.9789
45.86397053617525	345.99805783448306	73.4789
46.043245018569806	344.62932762827677	74.1727
46.238756092964955	343.26920245272464	75.0942
46.450287901158305	341.91829869987816	76.2712
46.677610883583455	340.5771946143248	77.7239
46.920482858129056	339.2464290163152	79.4638
47.178650119779434	337.92650036495786	81.4935
47.45184855059512	336.61786615176925	83.8061
47.73980473009234	335.3209426106762	86.3853
48.04223703674405	334.03610472697835	89.2063
48.3588567320902	332.76368652482927	92.2361
48.68936901978189	331.50398161048975	95.4348
49.03347407277117	330.2572439469416	98.757
49.39086802277208	329.0236888343902	102.1533
49.76124390703504	327.80349407069133	105.5722
50.14429256838125	326.596801265758	108.9612
50.539703505316005	325.40371728447303	112.2693
50.94716566986905	324.2243157934907	115.4481
51.36636821158484	323.05863888848745	118.4536
51.79700116679685	321.9066987798499	121.2472
52.23875609296496	320.76847951640775	123.797
52.691326648427214	319.6439387285699	126.0784
53.154409118419395	318.5330093740457	128.0746
53.62770288864506	317.43560147119416	129.7768
54.11091086804023	316.3516038068849	131.1841
54.60373986267208	315.28088560756106	132.3026
55.10590090294487	314.2232981639185	133.1453
55.617109526463715	313.17867640125496	133.7306
56.13708601903233	312.14684038906586	134.0815
56.66555561634144	311.12759678487197	134.2242
57.20224866894282	310.120740208543	134.1868
57.74690077310915	309.1260545445325	133.9979
58.29925287015328	308.1433141704624	133.6853
58.8590513167294	307.17228511139535	133.2751
59.42604792856702	306.2127261199089	132.7904
59.99999999999999	305.26438968275465	132.2504
60.58067030155157	304.3270229554423	131.67
61.16782705772538	303.40036862655415	131.0595
61.76124390703503	302.4841657139688	130.4242
62.36069984618289	301.5781502954692	129.7647
62.96597916017513	300.68205617643343	129.0773
63.57687134003648	299.7956154974686	128.3544
64.19317098966519	298.91855928495545	127.5855
64.81467772324949	298.0506179475306	126.7578
65.44119605454999	297.191521721553	125.8573
66.0725352792411	296.3410010685859	124.8698
66.70850935139694	295.49878702788453	123.7818
67.34893675510656	294.6646115268114	122.5815
67.99364037210603	293.83820765201864	121.2596
68.64244734622547	293.0193098841362	119.8098
69.29518894536457	292.2076542985965	118.2295
69.95170042163069	291.40297873510644	116.5202
70.61182087020094	290.60502293815665	114.6872
71.2753930874019	289.81352867082944	112.7399
71.94226342843773	289.0282398040422	110.6913
72.61228166514054	288.2489023832344	108.5574
73.28530084406377	287.4752646743821	106.3571
73.96117714519126	286.7070771911018	104.1109
74.63976974149092	285.9440927044865	101.8401
75.32094065950206	285.1860662372025	99.5666
76.00455464110858	284.4327550432674	97.3112
76.6904790066185	283.6839185748216	95.0936
77.37858351923944	282.93931843711187	92.9312
78.0687402510143	282.1987183328067	90.8386
78.76082345025605	281.4618839966795	88.8274
79.45470941050044	280.72858312160906	86.9061
80.15027634097487	279.9985852767744	85.0794
80.84740423856572	279.2716618188454	83.3493
81.54597476125012	278.54758579690696	81.7144
82.24587110294536	277.82613185179235	80.1714
82.94697786971682	277.10707611044654	78.7148
83.64918095727445	276.39019607588716	77.3384
84.3523674296794	275.67527051328665	76.0354
85.05642539917308	274.96207933265566	74.7997
85.76124390703502	274.2504034685707	73.6265
86.4667128053692	273.5400247573564	72.5128
87.17272263971289	272.83072581210183	71.4583
87.87916453235917	272.1222898958679	70.4656
88.58593006627854	271.4145007934176	69.5408
89.29291116952395	270.7071426817872	68.693
90.0	270.0	67.9347
90.70708883047607	269.2928573182127	67.2813
91.41406993372146	268.5854992065824	66.7505
92.12083546764083	267.8777101041321	66.3615
92.82727736028711	267.16927418789817	66.1344
93.5332871946308	266.4599752426436	66.089
94.23875609296496	265.7495965314293	66.2439
94.94357460082692	265.03792066734434	66.6154
95.64763257032061	264.32472948671335	67.2164
96.35081904272555	263.60980392411284	68.0556
97.05302213028318	262.89292388955346	69.1365
97.75412889705464	262.17386814820765	70.4571
98.45402523874989	261.45241420309304	72.0091
99.15259576143428	260.7283381811546	73.7778
99.84972365902512	260.0014147232256	75.7426
100.54529058949956	259.27141687839094	77.8768
101.23917654974393	258.5381160033205	80.1485
101.93125974898571	257.8012816671933	82.5213
102.62141648076054	257.06068156288813	84.9555
103.30952099338153	256.31608142517837	87.4093
103.99544535889142	255.56724495673262	89.8404
104.67905934049796	254.8139337627975	92.2068
105.36023025850908	254.05590729551355	94.4691
106.03882285480874	253.2929228088982	96.5912
106.71469915593623	252.52473532561788	98.5422
107.38771833485946	251.7510976167656	100.2971
108.05773657156229	250.9717601959578	101.8379
108.7246069125981	250.18647132917056	103.1542
109.38817912979906	249.39497706184335	104.2437
110.04829957836931	248.59702126489356	105.1122
110.70481105463544	247.79234570140352	105.773
111.35755265377453	246.98069011586378	106.2469
112.00635962789397	246.16179234798136	106.5607
112.65106324489344	245.33538847318857	106.7464
113.29149064860306	244.50121297211547	106.8394
113.92746472075892	243.6589989314141	106.8774
114.55880394545001	242.808478278447	106.8984
115.18532227675053	241.9493820524694	106.9391
115.8068290103348	241.08144071504458	107.0327
116.42312865996352	240.2043845025314	107.2083
117.03402083982486	239.31794382356657	107.4884
117.63930015381712	238.4218497045308	107.8884
118.23875609296496	237.5158342860312	108.4153
118.83217294227461	236.59963137344585	109.0674
119.41932969844842	235.67297704455768	109.8341
120.00000000000001	234.73561031724535	110.6955
120.573952071433	233.78727388009108	111.6238
121.14094868327061	232.82771488860465	112.5835
121.70074712984672	231.85668582953755	113.5331
122.25309922689084	230.87394545546752	114.4262
122.79775133105717	229.879259791457	115.2136
123.33444438365854	228.8724032151281	115.8452
123.86291398096766	227.8531596109341	116.2717
124.38289047353629	226.82132359874498	116.4471
124.89409909705513	225.7767018360815	116.33
125.39626013732791	224.71911439243897	115.8862
125.88908913195978	223.64839619311508	115.0895
126.37229711135494	222.56439852880584	113.9234
126.84559088158062	221.46699062595428	112.3821
127.30867335157278	220.35606127143015	110.4708
127.76124390703504	219.23152048359228	108.2061
128.20299883320317	218.0933012201501	105.6153
128.6336317884152	216.94136111151252	102.7364
129.05283433013093	215.7756842065093	99.6163
129.460296494684	214.59628271552702	96.3099
129.85570743161875	213.40319873424195	92.8779
130.23875609296496	212.19650592930864	89.3855
130.60913197722795	210.9763111656098	85.8994
130.96652592722884	209.74275605305837	82.4864
131.31063098021812	208.49601838951028	79.2108
131.6411432679098	207.2363134751707	76.1323
131.95776296325596	205.96389527302162	73.3041
132.26019526990768	204.67905738932384	70.7714
132.54815144940486	203.38213384823078	68.5698
132.8213498802206	202.07349963504214	66.7244
133.07951714187095	200.75357098368477	65.2491
133.32238911641656	199.4228053856752	64.1465
133.5497120988417	198.08170130012184	63.4081
133.76124390703504	196.73079754727542	63.0152
133.9567549814302	195.3706723717232	62.9392
134.13602946382477	194.0019421655169	63.1441
134.2988662445046	192.62525984626305	63.5872
134.44507996657927	191.24131289041563	64.2214
134.57450197640154	189.8508210275788	64.9972
134.68698120911597	188.4545336074338	65.8648
134.78238499876502	187.0532266567986	66.7762
134.8605998029806	185.64769965015518	67.687
134.92153183310086	184.2387720225645	68.5581
134.96510758156856	182.82727945907357	69.3576
134.99127423966527	181.4140699993285	70.0616
135.0	180.0	70.6554
134.99127423966527	178.58593000067157	71.1335
134.96510758156856	177.1727205409264	71.5002
134.92153183310086	175.76122797743554	71.7689
134.8605998029806	174.35230034984485	71.9613
134.78238499876502	172.94677334320141	72.1067
134.68698120911597	171.54546639256625	72.2404
134.57450197640154	170.14917897242117	72.402
134.44507996657927	168.7586871095844	72.6339
134.2988662445046	167.37474015373698	72.9789
134.13602946382477	165.9980578344831	73.4789
133.9567549814302	164.62932762827674	74.1727
133.76124390703504	163.2692024527246	75.0942
133.5497120988417	161.9182986998782	76.2712
133.32238911641656	160.57719461432484	77.7239
133.07951714187095	159.24642901631526	79.4638
132.82134988022057	157.92650036495783	81.4935
132.54815144940488	156.61786615176925	83.8061
132.26019526990768	155.32094261067618	86.3853
131.95776296325596	154.03610472697838	89.2063
131.6411432679098	152.76368652482927	92.2361
131.31063098021812	151.50398161048975	95.4348
130.96652592722884	150.25724394694163	98.757
130.60913197722795	149.02368883439024	102.1533
130.23875609296496	147.80349407069139	105.5722
129.85570743161873	146.596801265758	108.9612
129.46029649468403	145.403717284473	112.2693
129.05283433013096	144.22431579349072	115.4481
128.6336317884152	143.0586388884875	118.4536
128.20299883320317	141.90669877984988	121.2472
127.76124390703505	140.76847951640775	123.797
127.3086733515728	139.64393872856988	126.0784
126.84559088158062	138.53300937404575	128.0746
126.37229711135495	137.4356014711942	129.7768
125.88908913195978	136.35160380688492	131.1841
125.39626013732794	135.28088560756106	132.3026
124.89409909705515	134.22329816391854	133.1453
124.38289047353632	133.17867640125502	133.7306
123.86291398096766	132.14684038906586	134.0815
123.33444438365856	131.12759678487194	134.2242
122.7977513310572	130.120740208543	134.1868
122.25309922689087	129.12605454453248	133.9979
121.70074712984675	128.14331417046245	133.6853
121.14094868327061	127.17228511139534	133.2751
120.57395207143298	126.21272611990892	132.7904
120.00000000000001	125.26438968275468	132.2504
119.41932969844845	124.32702295544235	131.67
118.83217294227461	123.40036862655414	131.0595
118.23875609296496	122.48416571396879	130.4242
117.63930015381712	121.57815029546921	129.7647
117.03402083982486	120.68205617643345	129.0773
116.42312865996352	119.79561549746859	128.3544
115.8068290103348	118.91855928495542	127.5855
115.18532227675053	118.05061794753063	126.7578
114.55880394545002	117.19152172155302	125.8573
113.92746472075895	116.34100106858591	124.8698
113.29149064860304	115.49878702788452	123.7818
112.65106324489344	114.66461152681141	122.5815
112.00635962789399	113.83820765201867	121.2596
111.35755265377455	113.01930988413625	119.8098
110.70481105463546	112.20765429859652	118.2295
110.04829957836931	111.40297873510644	116.5202
109.38817912979906	110.60502293815665	114.6872
108.7246069125981	109.81352867082943	112.7399
108.05773657156229	109.02823980404222	110.6913
107.38771833485946	108.2489023832344	108.5574
106.71469915593623	107.47526467438213	106.3571
106.03882285480876	106.70707719110183	104.1109
105.36023025850909	105.94409270448648	101.8401
104.67905934049797	105.18606623720254	99.5666
103.99544535889142	104.43275504326738	97.3112
103.30952099338151	103.68391857482159	95.0936
102.62141648076056	102.93931843711185	92.9312
101.93125974898572	102.19871833280676	90.8386
101.23917654974393	101.4618839966795	88.8274
100.54529058949956	100.72858312160906	86.9061
99.84972365902513	99.99858527677442	85.0794
99.15259576143428	99.27166181884544	83.3493
98.4540252387499	98.54758579690696	81.7144
97.75412889705464	97.82613185179234	80.1714
97.05302213028318	97.10707611044654	78.7148
96.35081904272556	96.39019607588716	77.3384
95.64763257032062	95.67527051328666	76.0354
94.94357460082692	94.96207933265563	74.7997
94.23875609296496	94.25040346857071	73.6265
93.53328719463082	93.54002475735638	72.5128
92.82727736028713	92.83072581210186	71.4583
92.12083546764086	92.12228989586791	70.4656
91.41406993372146	91.41450079341756	69.5408
90.70708883047607	90.70714268178726	68.693
90.0	0.0	103.9923
90.0	1.0	104.0256
90.0	2.0	104.3499
90.0	3.0000000000000004	104.9715
90.0	4.0	105.8935
90.0	5.0	107.1157
90.0	6.000000000000001	108.6335
90.0	7.0	110.4375
90.0	8.0	112.5131
90.0	9.0	114.8405
90.0	10.0	117.3939
90.0	11.0	120.1424
90.0	12.0	123.0502
90.0	13.0	126.0768
90.0	14.0	129.1784
90.0	14.999999999999998	132.3085
90.0	16.0	135.4196
90.0	17.000000000000004	138.464
90.0	18.0	141.3959
90.0	19.0	144.1722
90.0	20.0	146.7546
90.0	21.0	149.1105
90.0	22.0	151.2147
90.0	23.0	153.0498
90.0	24.000000000000004	154.6074
90.0	25.0	155.8885
90.0	26.0	156.9033
90.0	26.999999999999996	157.6714
90.0	28.0	158.2207
90.0	29.000000000000004	158.5867
90.0	29.999999999999996	158.811
90.0	31.0	158.9399
90.0	32.0	159.0222
90.0	33.0	159.1078
90.0	34.00000000000001	159.2448
90.0	35.0	159.4778
90.0	36.0	159.8458
90.0	37.0	160.3803
90.0	38.0	161.1034
90.0	39.0	162.0267
90.0	40.0	163.1502
90.0	41.0	164.4614
90.0	42.0	165.9358
90.0	43.0	167.537
90.0	44.0	169.2172
90.0	45.0	170.919
90.0	46.00000000000001	172.5772
90.0	47.0	174.1202
90.0	48.00000000000001	175.4734
90.0	49.00000000000001	176.561
90.0	50.0	177.3091
90.0	51.0	177.6487
90.0	52.0	177.5177
90.0	53.0	176.8642
90.0	54.0	175.648
90.0	55.0	173.843
90.0	56.0	171.438
90.0	57.00000000000001	168.4382
90.0	58.00000000000001	164.8649
90.0	59.00000000000001	160.7557
90.0	59.99999999999999	156.1634
90.0	61.0	151.1549
90.0	62.0	145.8089
90.0	63.0	140.2141
90.0	64.0	134.4661
90.0	65.0	128.6647
90.0	66.0	122.9107
90.0	67.0	117.3027
90.0	68.0	111.9343
90.0	69.0	106.891
90.0	70.0	102.2475
90.0	71.0	98.0659
90.0	72.0	94.3934
90.0	73.0	91.2617
90.0	74.0	88.6858
90.0	75.0	86.6643
90.0	76.0	85.1799
90.0	77.0	84.2006
90.0	78.0	83.681
90.0	79.0	83.5649
90.0	80.0	83.7875
90.0	81.0	84.2784
90.0	82.0	84.9641
90.0	83.0	85.7715
90.0	84.0	86.6309
90.0	85.0	87.4782
90.0	86.0	88.2579
90.0	87.0	88.9254
90.0	88.0	89.4481
90.0	89.0	89.8071
90.0	90.0	89.9975
90.0	91.0	90.0288
90.0	92.0	89.924
90.0	93.0	89.7191
90.0	94.0	89.4608
90.0	95.0	89.2051
90.0	96.00000000000001	89.0148
90.0	97.0	88.9567
90.0	98.0	89.0992
90.0	99.0	89.5091
90.0	100.0	90.2491
90.0	101.0	91.375
90.0	102.0	92.9336
90.0	103.0	94.9605
90.0	104.0	97.4787
90.0	105.00000000000001	100.4973
90.0	106.0	104.0112
90.0	107.0	108.0008
90.0	108.0	112.4326
90.0	109.0	117.2603
90.0	110.0	122.4258
90.0	111.0	127.8613
90.0	112.0	133.4917
90.0	113.0	139.2364
90.0	114.00000000000001	145.0123
90.0	115.0	150.7358
90.0	116.00000000000001	156.3261
90.0	117.0	161.7067
90.0	118.00000000000001	166.8082
90.0	119.0	171.5697
90.0	119.99999999999999	175.9407
90.0	121.0	179.8815
90.0	122.0	183.3646
90.0	123.00000000000001	186.3744
90.0	124.0	188.9071
90.0	125.00000000000001	190.9701
90.0	126.0	192.5809
90.0	127.00000000000001	193.7658
90.0	128.0	194.5585
90.0	129.0	194.9981
90.0	130.0	195.1274
90.0	131.0	194.9908
90.0	132.0	194.6328
90.0	133.0	194.0961
90.0	134.0	193.4201
90.0	135.0	192.6396
90.0	136.0	191.7838
90.0	137.0	190.8757
90.0	138.0	189.9314
90.0	139.0	188.9605
90.0	140.0	187.966
90.0	141.0	186.9449
90.0	142.0	185.8889
90.0	143.0	184.7855
90.0	144.0	183.6189
90.0	145.0	182.3715
90.0	146.0	181.0245
90.0	147.0	179.5599
90.0	148.0	177.9609
90.0	149.0	176.2132
90.0	150.0	174.3056
90.0	151.0	172.2312
90.0	152.0	169.987
90.0	153.0	167.5748
90.0	154.0	165.0008
90.0	155.0	162.2756
90.0	156.0	159.4138
90.0	157.0	156.4333
90.0	158.0	153.3552
90.0	159.0	150.2022
90.0	160.0	146.999
90.0	161.0	143.7706
90.0	162.0	140.5423
90.0	163.0	137.3385
90.0	164.0	134.183
90.0	165.0	131.0979
90.0	166.0	128.1036
90.0	167.0	125.219
90.0	168.0	122.4611
90.0	169.0	119.8451
90.0	170.0	117.3851
90.0	171.0	115.094
90.0	172.0	112.9837
90.0	173.0	111.0659
90.0	174.0	109.3519
90.0	175.0	107.8532
90.0	176.0	106.5811
90.0	177.0	105.5473
90.0	178.0	104.7637
90.0	179.0	104.2417
90.0	180.0	103.9923
90.0	181.0	104.0256
90.0	181.99999999999997	104.3499
90.0	182.99999999999997	104.9715
90.0	183.99999999999997	105.8935
90.0	184.99999999999997	107.1157
90.0	185.99999999999997	108.6335
90.0	186.99999999999997	110.4375
90.0	188.0	112.5131
90.0	188.99999999999997	114.8405
90.0	190.0	117.3939
90.0	190.99999999999997	120.1424
90.0	192.0	123.0502
90.0	192.99999999999997	126.0768
90.0	193.99999999999997	129.1784
90.0	194.99999999999997	132.3085
90.0	195.99999999999997	135.4196
90.0	197.0	138.464
90.0	197.99999999999997	141.3959
90.0	199.0	144.1722
90.0	199.99999999999997	146.7546
90.0	201.0	149.1105
90.0	201.99999999999997	151.2147
90.0	203.0	153.0498
90.0	203.99999999999997	154.6074
90.0	204.99999999999997	155.8885
90.0	206.0	156.9033
90.0	206.99999999999997	157.6714
90.0	208.0	158.2207
90.0	208.99999999999997	158.5867
90.0	210.0	158.811
90.0	210.99999999999997	158.9399
90.0	212.0	159.0222
90.0	212.99999999999997	159.1078
90.0	214.0	159.2448
90.0	215.0	159.4778
90.0	216.0	159.8458
90.0	217.0	160.3803
90.0	217.99999999999997	161.1034
90.0	219.00000000000003	162.0267
90.0	219.99999999999997	163.1502
90.0	220.99999999999997	164.4614
90.0	221.99999999999997	165.9358
90.0	223.0	167.537
90.0	224.0	169.2172
90.0	224.99999999999997	170.919
90.0	226.0	172.5772
90.0	227.0	174.1202
90.0	228.0	175.4734
90.0	229.0	176.561
90.0	230.0	177.3091
90.0	230.99999999999997	177.6487
90.0	232.00000000000003	177.5177
90.0	233.0	176.8642
90.0	233.99999999999997	175.648
90.0	234.99999999999994	173.843
90.0	236.0	171.438
90.0	237.0	168.4382
90.0	238.0	164.8649
90.0	239.0	160.7557
90.0	239.99999999999994	156.1634
90.0	241.0	151.1549
90.0	242.0	145.8089
90.0	242.99999999999997	140.2141
90.0	243.99999999999994	134.4661
90.0	245.0	128.6647
90.0	246.0	122.9107
90.0	247.0	117.3027
90.0	248.0	111.9343
90.0	248.99999999999997	106.891
90.0	250.0	102.2475
90.0	251.0	98.0659
90.0	252.0	94.3934
90.0	252.99999999999997	91.2617
90.0	254.0	88.6858
90.0	255.0	86.6643
90.0	256.0	85.1799
90.0	257.0	84.2006
90.0	258.0	83.681
90.0	259.0	83.5649
90.0	260.0	83.7875
90.0	261.0	84.2784
90.0	262.0	84.9641
90.0	263.0	85.7715
90.0	264.0	86.6309
90.0	265.0	87.4782
90.0	266.0	88.2579
90.0	267.0	88.9254
90.0	268.0	89.4481
90.0	269.0	89.8071
90.0	270.0	89.9975
90.0	271.0	90.0288
90.0	272.0	89.924
90.0	273.0	89.7191
90.0	274.0	89.4608
90.0	275.0	89.2051
90.0	276.0	89.0148
90.0	277.0	88.9567
90.0	278.0	89.0992
90.0	279.0	89.5091
90.0	280.0	90.2491
90.0	281.0	91.375
90.0	282.0	92.9336
90.0	283.0	94.9605
90.0	284.0	97.4787
90.0	285.0	100.4973
90.0	286.0	104.0112
90.0	287.0	108.0008
90.0	288.0	112.4326
90.0	289.0	117.2603
90.0	290.0	122.4258
90.0	291.0	127.8613
90.0	292.0	133.4917
90.0	293.0	139.2364
90.0	294.0	145.0123
90.0	295.0	150.7358
90.0	296.0	156.3261
90.0	297.0	161.7067
90.0	298.0	166.8082
90.0	299.0	171.5697
90.0	300.0	175.9407
90.0	301.0	179.8815
90.0	302.0	183.3646
90.0	303.0	186.3744
90.0	304.0	188.9071
90.0	305.0	190.9701
90.0	306.0	192.5809
90.0	307.0	193.7658
90.0	308.0	194.5585
90.0	309.0	194.9981
90.0	310.0	195.1274
90.0	311.0	194.9908
90.0	311.99999999999994	194.6328
90.0	313.0	194.0961
90.0	314.0	193.4201
90.0	315.0	192.6396
90.0	316.0	191.7838
90.0	317.0	190.8757
90.0	318.0	189.9314
90.0	319.0	188.9605
90.0	320.0	187.966
90.0	321.0	186.9449
90.0	322.0	185.8889
90.0	323.0	184.7855
90.0	324.0	183.6189
90.0	325.0	182.3715
90.0	326.0	181.0245
90.0	327.0	179.5599
90.0	328.0	177.9609
90.0	329.0	176.2132
90.0	330.0	174.3056
90.0	331.0	172.2312
90.0	332.0	169.987
90.0	333.0	167.5748
90.0	334.0	165.0008
90.0	335.0	162.2756
90.0	336.0	159.4138
90.0	337.0	156.4333
90.0	338.0	153.3552
90.0	338.99999999999994	150.2022
90.0	340.0	146.999
90.0	341.0	143.7706
90.0	342.0	140.5423
90.0	343.0	137.3385
90.0	344.0	134.183
90.0	345.0	131.0979
90.0	346.0	128.1036
90.0	347.0	125.219
90.0	347.99999999999994	122.4611
90.0	349.0	119.8451
90.0	350.0	117.3851
90.0	351.0	115.094
90.0	352.0	112.9837
90.0	353.0	111.0659
90.0	354.0	109.3519
90.0	355.0	107.8532
90.0	356.0	106.5811
90.0	356.99999999999994	105.5473
90.0	358.0	104.7637
90.0	359.0	104.2417
90.0	0.0	122.7741
89.0	0.0	122.313
88.0	0.0	122.1918
87.00000000000001	0.0	122.3871
86.0	0.0	122.8494
85.0	0.0	123.506
84.0	0.0	124.2647
83.0	0.0	125.0186
82.0	0.0	125.6515
81.0	0.0	126.0439
80.0	0.0	126.0796
79.0	0.0	125.6511
78.00000000000001	0.0	124.6661
77.0	0.0	123.0522
76.0	0.0	120.7613
75.0	0.0	117.7727
74.0	0.0	114.0949
73.0	0.0	109.766
72.0	0.0	104.853
71.0	0.0	99.4495
70.0	0.0	93.6719
69.00000000000001	0.0	87.6549
68.0	0.0	81.5461
67.0	0.0	75.4992
66.0	0.0	69.6679
65.0	0.0	64.1989
64.0	0.0	59.2254
63.0	0.0	54.8613
62.0	0.0	51.1959
61.0	0.0	48.29
60.00000000000001	0.0	46.1729
59.00000000000001	0.0	44.8411
58.00000000000001	0.0	44.2586
57.00000000000001	0.0	44.3579
55.99999999999999	0.0	45.0439
55.00000000000001	0.0	46.1974
54.0	0.0	47.6816
53.00000000000001	0.0	49.3474
52.0	0.0	51.0417
51.00000000000001	0.0	52.6138
50.00000000000001	0.0	53.9234
49.00000000000001	0.0	54.8473
48.0	0.0	55.2859
47.0	0.0	55.1687
46.00000000000001	0.0	54.4581
45.0	0.0	53.1525
44.0	0.0	51.287
43.0	0.0	48.9333
42.0	0.0	46.1972
41.0	0.0	43.2149
40.00000000000001	0.0	40.1477
39.0	0.0	37.1753
37.99999999999999	0.0	34.4886
37.0	0.0	32.2812
36.0	0.0	30.7411
35.0	0.0	30.0421
34.0	0.0	30.3355
33.0	0.0	31.7432
31.99999999999999	0.0	34.3512
31.0	0.0	38.2047
30.000000000000004	0.0	43.3048
29.00000000000001	0.0	49.6074
28.000000000000007	0.0	57.0231
27.00000000000001	0.0	65.4195
25.999999999999996	0.0	74.6259
25.000000000000004	0.0	84.438
24.000000000000004	0.0	94.6261
22.999999999999993	0.0	104.9426
21.999999999999996	0.0	115.1318
21.0	0.0	124.9394
20.00000000000001	0.0	134.1221
19.000000000000014	0.0	142.457
18.00000000000001	0.0	149.7503
17.000000000000007	0.0	155.8452
15.999999999999995	0.0	160.6274
14.999999999999996	0.0	164.0305
14.0	0.0	166.0376
12.999999999999996	0.0	166.6827
12.000000000000018	0.0	166.0492
10.999999999999993	0.0	164.2659
10.000000000000012	0.0	161.5027
8.999999999999984	0.0	157.9626
7.999999999999981	0.0	153.8744
7.000000000000025	0.0	149.4825
6.000000000000026	0.0	145.0374
4.999999999999992	0.0	140.7854
4.000000000000042	0.0	136.958
3.0000000000000444	0.0	133.763
1.9999999999999472	0.0	131.3754
0.9999999999999002	0.0	129.9303
0.0	0.0	129.5175
0.9999999999999002	180.0	130.1774
1.9999999999999472	180.0	131.8994
3.0000000000000444	180.0	134.6221
4.000000000000042	180.0	138.236
4.999999999999992	180.0	142.5875
6.000000000000026	180.0	147.4853
6.9999999999999725	180.0	152.7084
7.999999999999981	180.0	158.0145
8.999999999999984	180.0	163.1504
10.000000000000012	180.0	167.8619
10.999999999999993	180.0	171.9046
11.999999999999988	180.0	175.0533
12.999999999999996	180.0	177.1119
14.0	180.0	177.9206
14.999999999999996	180.0	177.3632
15.999999999999995	180.0	175.3715
16.99999999999999	180.0	171.9282
17.999999999999986	180.0	167.0679
18.999999999999996	180.0	160.8758
19.999999999999993	180.0	153.4841
21.0	180.0	145.0677
21.999999999999996	180.0	135.8365
23.00000000000001	180.0	126.0281
24.000000000000004	180.0	115.8981
24.99999999999999	180.0	105.7106
26.000000000000007	180.0	95.7283
26.999999999999996	180.0	86.2023
28.000000000000007	180.0	77.3633
28.999999999999996	180.0	69.4129
29.999999999999993	180.0	62.5167
31.0	180.0	56.7988
31.99999999999999	180.0	52.3381
33.0	180.0	49.1665
34.0	180.0	47.2685
35.000000000000014	180.0	46.5839
36.0	180.0	47.0109
37.000000000000014	180.0	48.4122
37.99999999999999	180.0	50.6208
38.99999999999999	180.0	53.4488
40.00000000000001	180.0	56.6951
40.999999999999986	180.0	60.1548
42.0	180.0	63.6279
43.0	180.0	66.9276
44.00000000000001	180.0	69.8879
45.0	180.0	72.3706
46.000000000000014	180.0	74.2702
47.0	180.0	75.5175
47.999999999999986	180.0	76.0821
49.00000000000001	180.0	75.9724
49.99999999999999	180.0	75.2342
51.00000000000001	180.0	73.9476
51.99999999999999	180.0	72.2228
53.000000000000014	180.0	70.1938
53.99999999999999	180.0	68.0125
55.000000000000014	180.0	65.8402
55.99999999999999	180.0	63.841
56.999999999999986	180.0	62.1733
58.00000000000001	180.0	60.9828
58.99999999999999	180.0	60.3956
60.00000000000001	180.0	60.5129
61.0	180.0	61.4062
62.000000000000014	180.0	63.1141
63.0	180.0	65.641
64.00000000000001	180.0	68.957
65.0	180.0	72.999
65.99999999999999	180.0	77.6744
67.0	180.0	82.8646
68.0	180.0	88.4308
69.00000000000001	180.0	94.2199
70.0	180.0	100.0717
71.00000000000001	180.0	105.8252
72.0	180.0	111.3258
73.00000000000001	180.0	116.4321
74.0	180.0	121.0211
74.99999999999999	180.0	124.9934
76.0	180.0	128.2768
77.0	180.0	130.829
78.00000000000001	180.0	132.6381
79.0	180.0	133.7226
80.00000000000001	180.0	134.1294
81.0	180.0	133.9307
82.00000000000001	180.0	133.2198
83.0	180.0	132.106
83.99999999999999	180.0	130.7086
85.0	180.0	129.1509
86.0	180.0	127.5537
87.00000000000001	180.0	126.0293
88.0	180.0	124.6756
89.00000000000001	180.0	123.5719
90.0	180.0	122.7741
91.00000000000001	180.0	122.313
92.0	180.0	122.1918
92.99999999999999	180.0	122.3871
94.0	180.0	122.8494
95.0	180.0	123.506
96.00000000000001	180.0	124.2647
97.0	180.0	125.0186
98.00000000000001	180.0	125.6515
99.0	180.0	126.0439
100.00000000000001	180.0	126.0796
101.0	180.0	125.6511
102.00000000000001	180.0	124.6661
103.0	180.0	123.0522
104.0	180.0	120.7613
105.00000000000001	180.0	117.7727
106.0	180.0	114.0949
107.00000000000001	180.0	109.766
108.0	180.0	104.853
109.00000000000001	180.0	99.4495
110.0	180.0	93.6719
111.00000000000001	180.0	87.6549
112.0	180.0	81.5461
113.0	180.0	75.4992
114.00000000000001	180.0	69.6679
115.0	180.0	64.1989
116.00000000000001	180.0	59.2254
117.0	180.0	54.8613
118.00000000000001	180.0	51.1959
119.0	180.0	48.29
120.00000000000001	180.0	46.1729
121.0	180.0	44.8411
122.0	180.0	44.2586
123.00000000000001	180.0	44.3579
124.0	180.0	45.0439
125.00000000000001	180.0	46.1974
126.0	180.0	47.6816
127.00000000000001	180.0	49.3474
128.0	180.0	51.0417
129.00000000000003	180.0	52.6138
130.0	180.0	53.9234
131.0	180.0	54.8473
132.0	180.0	55.2859
133.0	180.0	55.1687
134.0	180.0	54.4581
135.0	180.0	53.1525
136.0	180.0	51.287
137.0	180.0	48.9333
138.00000000000003	180.0	46.1972
139.0	180.0	43.2149
140.0	180.0	40.1477
140.99999999999997	180.0	37.1753
142.00000000000003	180.0	34.4886
143.0	180.0	32.2812
144.0	180.0	30.7411
145.0	180.0	30.0421
146.00000000000003	180.0	30.3355
147.00000000000003	180.0	31.7432
148.0	180.0	34.3512
149.0	180.0	38.2047
149.99999999999997	180.0	43.3048
151.00000000000003	180.0	49.6074
152.0	180.0	57.0231
153.0	180.0	65.4195
154.0	180.0	74.6259
155.00000000000003	180.0	84.438
156.00000000000003	180.0	94.6261
157.0	180.0	104.9426
158.0	180.0	115.1318
158.99999999999997	180.0	124.9394
160.00000000000003	180.0	134.1221
161.0	180.0	142.457
162.0	180.0	149.7503
163.0	180.0	155.8452
164.00000000000003	180.0	160.6274
165.00000000000003	180.0	164.0305
166.0	180.0	166.0376
167.0	180.0	166.6827
167.99999999999997	180.0	166.0492
169.00000000000003	180.0	164.2659
169.99999999999997	180.0	161.5027
170.99999999999997	180.0	157.9626
172.0	180.0	153.8744
173.00000000000003	180.0	149.4825
174.00000000000003	180.0	145.0374
175.0	180.0	140.7854
175.99999999999997	180.0	136.958
176.99999999999994	180.0	133.763
178.00000000000006	180.0	131.3754
179.0000000000001	180.0	129.9303
180.0	180.0	129.5175
179.0000000000001	0.0	130.1774
178.00000000000006	0.0	131.8994
176.99999999999994	0.0	134.6221
176.00000000000006	0.0	138.236
175.0	0.0	142.5875
174.00000000000003	0.0	147.4853
172.99999999999997	0.0	152.7084
172.0	0.0	158.0145
171.00000000000003	0.0	163.1504
170.00000000000003	0.0	167.8619
168.99999999999997	0.0	171.9046
167.99999999999997	0.0	175.0533
167.00000000000003	0.0	177.1119
166.00000000000003	0.0	177.9206
165.00000000000003	0.0	177.3632
163.99999999999997	0.0	175.3715
163.0	0.0	171.9282
162.00000000000003	0.0	167.0679
161.00000000000003	0.0	160.8758
160.0	0.0	153.4841
159.0	0.0	145.0677
158.00000000000003	0.0	135.8365
157.00000000000003	0.0	126.0281
156.00000000000003	0.0	115.8981
154.99999999999997	0.0	105.7106
154.0	0.0	95.7283
153.00000000000003	0.0	86.2023
152.0	0.0	77.3633
150.99999999999997	0.0	69.4129
150.0	0.0	62.5167
149.0	0.0	56.7988
148.0	0.0	52.3381
147.00000000000003	0.0	49.1665
146.0	0.0	47.2685
145.0	0.0	46.5839
144.00000000000003	0.0	47.0109
143.0	0.0	48.4122
142.0	0.0	50.6208
140.99999999999997	0.0	53.4488
140.00000000000003	0.0	56.6951
139.00000000000003	0.0	60.1548
138.00000000000003	0.0	63.6279
137.0	0.0	66.9276
136.0	0.0	69.8879
135.00000000000003	0.0	72.3706
134.00000000000003	0.0	74.2702
132.99999999999997	0.0	75.5175
131.99999999999997	0.0	76.0821
131.00000000000003	0.0	75.9724
130.00000000000003	0.0	75.2342
129.00000000000003	0.0	73.9476
128.0	0.0	72.2228
126.99999999999999	0.0	70.1938
126.00000000000003	0.0	68.0125
125.00000000000004	0.0	65.8402
123.99999999999997	0.0	63.841
122.99999999999999	0.0	62.1733
122.0	0.0	60.9828
121.0	0.0	60.3956
120.00000000000001	0.0	60.5129
119.0	0.0	61.4062
118.00000000000001	0.0	63.1141
117.00000000000003	0.0	65.641
116.00000000000004	0.0	68.957
115.0	0.0	72.999
114.00000000000001	0.0	77.6744
113.00000000000001	0.0	82.8646
112.00000000000003	0.0	88.4308
111.00000000000004	0.0	94.2199
110.0	0.0	100.0717
109.00000000000001	0.0	105.8252
108.00000000000003	0.0	111.3258
107.00000000000004	0.0	116.4321
106.0	0.0	121.0211
105.0	0.0	124.9934
104.00000000000001	0.0	128.2768
103.00000000000001	0.0	130.829
102.00000000000003	0.0	132.6381
100.99999999999999	0.0	133.7226
100.0	0.0	134.1294
99.00000000000001	0.0	133.9307
98.00000000000003	0.0	133.2198
96.99999999999999	0.0	132.106
96.0	0.0	130.7086
95.0	0.0	129.1509
94.00000000000001	0.0	127.5537
93.00000000000003	0.0	126.0293
91.99999999999999	0.0	124.6756
91.0	0.0	123.5719
90.0	90.0	79.0783
89.0	90.0	78.3793
88.0	90.0	77.8358
87.00000000000001	90.0	77.4639
86.0	90.0	77.2782
85.0	90.0	77.2917
84.0	90.0	77.5144
83.0	90.0	77.953
82.0	90.0	78.6097
81.0	90.0	79.4823
80.0	90.0	80.5634
79.0	90.0	81.8401
78.00000000000001	90.0	83.2947
77.0	90.0	84.904
76.0	90.0	86.6406
75.0	90.0	88.4733
74.0	90.0	90.3677
73.0	90.0	92.2879
72.0	90.0	94.1972
71.0	90.0	96.0597
70.0	90.0	97.8414
69.00000000000001	90.0	99.5119
68.0	90.0	101.0452
67.0	90.0	102.4212
66.0	90.0	103.6265
65.0	90.0	104.6552
64.0	90.0	105.5092
63.0	90.0	106.1986
62.0	90.0	106.7412
61.0	90.0	107.1625
60.00000000000001	90.0	107.4945
59.00000000000001	90.0	107.7747
58.00000000000001	90.0	108.0448
57.00000000000001	90.0	108.3494
55.99999999999999	90.0	108.7337
55.00000000000001	90.0	109.2425
54.0	90.0	109.9175
53.00000000000001	90.0	110.796
52.0	90.0	111.9093
51.00000000000001	90.0	113.2811
50.00000000000001	90.0	114.9259
49.00000000000001	90.0	116.8486
48.0	90.0	119.0438
47.0	90.0	121.4953
46.00000000000001	90.0	124.1765
45.0	90.0	127.051
44.0	90.0	130.0735
43.0	90.0	133.1911
42.0	90.0	136.345
41.0	90.0	139.4723
40.00000000000001	90.0	142.508
39.0	90.0	145.3873
37.99999999999999	90.0	148.0479
37.0	90.0	150.4318
36.0	90.0	152.4878
35.0	90.0	154.1728
34.0	90.0	155.4536
33.0	90.0	156.3084
31.99999999999999	90.0	156.7267
31.0	90.0	156.7109
30.000000000000004	90.0	156.275
29.00000000000001	90.0	155.4453
28.000000000000007	90.0	154.2585
27.00000000000001	90.0	152.7612
25.999999999999996	90.0	151.0077
25.000000000000004	90.0	149.0584
24.000000000000004	90.0	146.9778
22.999999999999993	90.0	144.832
21.999999999999996	90.0	142.6866
21.0	90.0	140.6048
20.00000000000001	90.0	138.6445
19.000000000000014	90.0	136.8573
18.00000000000001	90.0	135.2865
17.000000000000007	90.0	133.9657
15.999999999999995	90.0	132.9184
14.999999999999996	90.0	132.1571
14.0	90.0	131.6833
12.999999999999996	90.0	131.4881
12.000000000000018	90.0	131.5529
10.999999999999993	90.0	131.8504
10.000000000000012	90.0	132.3462
8.999999999999984	90.0	133.0003
7.999999999999981	90.0	133.7693
7.000000000000025	90.0	134.6081
6.000000000000026	90.0	135.4723
4.999999999999992	90.0	136.3195
4.000000000000042	90.0	137.1118
3.0000000000000444	90.0	137.8169
1.9999999999999472	90.0	138.4096
0.9999999999999002	90.0	138.8729
0.0	90.0	139.1986
0.9999999999999002	270.0	139.3873
1.9999999999999472	270.0	139.4486
3.0000000000000444	270.0	139.4003
4.000000000000042	270.0	139.2677
4.999999999999992	270.0	139.0824
6.000000000000026	270.0	138.8807
6.9999999999999725	270.0	138.7021
7.999999999999981	270.0	138.5872
8.999999999999984	270.0	138.5763
10.000000000000012	270.0	138.7072
10.999999999999993	270.0	139.0136
11.999999999999988	270.0	139.5234
12.999999999999996	270.0	140.2577
14.0	270.0	141.2293
14.999999999999996	270.0	142.4422
15.999999999999995	270.0	143.891
16.99999999999999	270.0	145.5614
17.999999999999986	270.0	147.4298
18.999999999999996	270.0	149.4647
19.999999999999993	270.0	151.627
21.0	270.0	153.872
21.999999999999996	270.0	156.1505
23.00000000000001	270.0	158.4104
24.000000000000004	270.0	160.5987
24.99999999999999	270.0	162.6631
26.000000000000007	270.0	164.5541
26.999999999999996	270.0	166.2261
28.000000000000007	270.0	167.6392
28.999999999999996	270.0	168.7603
29.999999999999993	270.0	169.5643
31.0	270.0	170.0343
31.99999999999999	270.0	170.1626
33.0	270.0	169.95
34.0	270.0	169.4059
35.000000000000014	270.0	168.5477
36.0	270.0	167.3998
37.000000000000014	270.0	165.9926
37.99999999999999	270.0	164.3612
38.99999999999999	270.0	162.5437
40.00000000000001	270.0	160.5805
40.999999999999986	270.0	158.5119
42.0	270.0	156.3775
43.0	270.0	154.2142
44.00000000000001	270.0	152.0558
45.0	270.0	149.9314
46.000000000000014	270.0	147.8649
47.0	270.0	145.8747
47.999999999999986	270.0	143.9733
49.00000000000001	270.0	142.1673
49.99999999999999	270.0	140.4577
51.00000000000001	270.0	138.8404
51.99999999999999	270.0	137.3068
53.000000000000014	270.0	135.8447
53.99999999999999	270.0	134.4391
55.000000000000014	270.0	133.0732
55.99999999999999	270.0	131.7292
56.999999999999986	270.0	130.3897
58.00000000000001	270.0	129.0379
58.99999999999999	270.0	127.6592
60.00000000000001	270.0	126.2408
61.0	270.0	124.773
62.000000000000014	270.0	123.2491
63.0	270.0	121.6657
64.00000000000001	270.0	120.0224
65.0	270.0	118.3218
65.99999999999999	270.0	116.5691
67.0	270.0	114.7718
68.0	270.0	112.9388
69.00000000000001	270.0	111.0802
70.0	270.0	109.2068
71.00000000000001	270.0	107.3291
72.0	270.0	105.4573
73.00000000000001	270.0	103.6006
74.0	270.0	101.7672
74.99999999999999	270.0	99.9639
76.0	270.0	98.1959
77.0	270.0	96.4675
78.00000000000001	270.0	94.7815
79.0	270.0	93.1402
80.00000000000001	270.0	91.5455
81.0	270.0	89.999
82.00000000000001	270.0	88.5032
83.0	270.0	87.0612
83.99999999999999	270.0	85.6775
85.0	270.0	84.3583
86.0	270.0	83.1117
87.00000000000001	270.0	81.9476
88.0	270.0	80.878
89.00000000000001	270.0	79.9165
90.0	270.0	79.0783
91.00000000000001	270.0	78.3793
92.0	270.0	77.8358
92.99999999999999	270.0	77.4639
94.0	270.0	77.2782
95.0	270.0	77.2917
96.00000000000001	270.0	77.5144
97.0	270.0	77.953
98.00000000000001	270.0	78.6097
99.0	270.0	79.4823
100.00000000000001	270.0	80.5634
101.0	270.0	81.8401
102.00000000000001	270.0	83.2947
103.0	270.0	84.904
104.0	270.0	86.6406
105.00000000000001	270.0	88.4733
106.0	270.0	90.3677
107.00000000000001	270.0	92.2879
108.0	270.0	94.1972
109.00000000000001	270.0	96.0597
110.0	270.0	97.8414
111.00000000000001	270.0	99.5119
112.0	270.0	101.0452
113.0	270.0	102.4212
114.00000000000001	270.0	103.6265
115.0	270.0	104.6552
116.00000000000001	270.0	105.5092
117.0	270.0	106.1986
118.00000000000001	270.0	106.7412
119.0	270.0	107.1625
120.00000000000001	270.0	107.4945
121.0	270.0	107.7747
122.0	270.0	108.0448
123.00000000000001	270.0	108.3494
124.0	270.0	108.7337
125.00000000000001	270.0	109.2425
126.0	270.0	109.9175
127.00000000000001	270.0	110.796
128.0	270.0	111.9093
129.00000000000003	270.0	113.2811
130.0	270.0	114.9259
131.0	270.0	116.8486
132.0	270.0	119.0438
133.0	270.0	121.4953
134.0	270.0	124.1765
135.0	270.0	127.051
136.0	270.0	130.0735
137.0	270.0	133.1911
138.00000000000003	270.0	136.345
139.0	270.0	139.4723
140.0	270.0	142.508
140.99999999999997	270.0	145.3873
142.00000000000003	270.0	148.0479
143.0	270.0	150.4318
144.0	270.0	152.4878
145.0	270.0	154.1728
146.00000000000003	270.0	155.4536
147.00000000000003	270.0	156.3084
148.0	270.0	156.7267
149.0	270.0	156.7109
149.99999999999997	270.0	156.275
151.00000000000003	270.0	155.4453
152.0	270.0	154.2585
153.0	270.0	152.7612
154.0	270.0	151.0077
155.00000000000003	270.0	149.0584
156.00000000000003	270.0	146.9778
157.0	270.0	144.832
158.0	270.0	142.6866
158.99999999999997	270.0	140.6048
160.00000000000003	270.0	138.6445
161.0	270.0	136.8573
162.0	270.0	135.2865
163.0	270.0	133.9657
164.00000000000003	270.0	132.9184
165.00000000000003	270.0	132.1571
166.0	270.0	131.6833
167.0	270.0	131.4881
167.99999999999997	270.0	131.5529
169.00000000000003	270.0	131.8504
169.99999999999997	270.0	132.3462
170.99999999999997	270.0	133.0003
172.0	270.0	133.7693
173.00000000000003	270.0	134.6081
174.00000000000003	270.0	135.4723
175.0	270.0	136.3195
175.99999999999997	270.0	137.1118
176.99999999999994	270.0	137.8169
178.00000000000006	270.0	138.4096
179.0000000000001	270.0	138.8729
180.0	270.0	139.1986
179.0000000000001	90.0	139.3873
178.00000000000006	90.0	139.4486
176.99999999999994	90.0	139.4003
176.00000000000006	90.0	139.2677
175.0	90.0	139.0824
174.00000000000003	90.0	138.8807
172.99999999999997	90.0	138.7021
172.0	90.0	138.5872
171.00000000000003	90.0	138.5763
170.00000000000003	90.0	138.7072
168.99999999999997	90.0	139.0136
167.99999999999997	90.0	139.5234
167.00000000000003	90.0	140.2577
166.00000000000003	90.0	141.2293
165.00000000000003	90.0	142.4422
163.99999999999997	90.0	143.891
163.0	90.0	145.5614
162.00000000000003	90.0	147.4298
161.00000000000003	90.0	149.4647
160.0	90.0	151.627
159.0	90.0	153.872
158.00000000000003	90.0	156.1505
157.00000000000003	90.0	158.4104
156.00000000000003	90.0	160.5987
154.99999999999997	90.0	162.6631
154.0	90.0	164.5541
153.00000000000003	90.0	166.2261
152.0	90.0	167.6392
150.99999999999997	90.0	168.7603
150.0	90.0	169.5643
149.0	90.0	170.0343
148.0	90.0	170.1626
147.00000000000003	90.0	169.95
146.0	90.0	169.4059
145.0	90.0	168.5477
144.00000000000003	90.0	167.3998
143.0	90.0	165.9926
142.0	90.0	164.3612
140.99999999999997	90.0	162.5437
140.00000000000003	90.0	160.5805
139.00000000000003	90.0	158.5119
138.00000000000003	90.0	156.3775
137.0	90.0	154.2142
136.0	90.0	152.0558
135.00000000000003	90.0	149.9314
134.00000000000003	90.0	147.8649
132.99999999999997	90.0	145.8747
131.99999999999997	90.0	143.9733
131.00000000000003	90.0	142.1673
130.00000000000003	90.0	140.4577
129.00000000000003	90.0	138.8404
128.0	90.0	137.3068
126.99999999999999	90.0	135.8447
126.00000000000003	90.0	134.4391
125.00000000000004	90.0	133.0732
123.99999999999997	90.0	131.7292
122.99999999999999	90.0	130.3897
122.0	90.0	129.0379
121.0	90.0	127.6592
120.00000000000001	90.0	126.2408
119.0	90.0	124.773
118.00000000000001	90.0	123.2491
117.00000000000003	90.0	121.6657
116.00000000000004	90.0	120.0224
115.0	90.0	118.3218
114.00000000000001	90.0	116.5691
113.00000000000001	90.0	114.7718
112.00000000000003	90.0	112.9388
111.00000000000004	90.0	111.0802
110.0	90.0	109.2068
109.00000000000001	90.0	107.3291
108.00000000000003	90.0	105.4573
107.00000000000004	90.0	103.6006
106.0	90.0	101.7672
105.0	90.0	99.9639
104.00000000000001	90.0	98.1959
103.00000000000001	90.0	96.4675
102.00000000000003	90.0	94.7815
100.99999999999999	90.0	93.1402
100.0	90.0	91.5455
99.00000000000001	90.0	89.999
98.00000000000003	90.0	88.5032
96.99999999999999	90.0	87.0612
96.0	90.0	85.6775
95.0	90.0	84.3583
94.00000000000001	90.0	83.1117
93.00000000000003	90.0	81.9476
91.99999999999999	90.0	80.878
91.0	90.0	79.9165
