Polar Angle 	 Azimuth Angle 	 Intensity 
90.0	45.0	115.7014
89.0	45.0	114.4638
88.0	45.0	112.704
87.00000000000001	45.0	110.454
86.0	45.0	107.7617
85.0	45.0	104.6894
84.0	45.0	101.3119
83.0	45.0	97.7143
82.0	45.0	93.9893
81.0	45.0	90.2345
80.0	45.0	86.5494
79.0	45.0	83.0324
78.00000000000001	45.0	79.778
77.0	45.0	76.8739
76.0	45.0	74.399
75.0	45.0	72.4214
74.0	45.0	70.9965
73.0	45.0	70.1665
72.0	45.0	69.9596
71.0	45.0	70.3899
70.0	45.0	71.4585
69.00000000000001	45.0	73.1537
68.0	45.0	75.4531
67.0	45.0	78.3248
66.0	45.0	81.7296
65.0	45.0	85.6227
64.0	45.0	89.9561
63.0	45.0	94.6804
62.0	45.0	99.7465
61.0	45.0	105.1073
60.00000000000001	45.0	110.7186
59.00000000000001	45.0	116.5403
58.00000000000001	45.0	122.5363
57.00000000000001	45.0	128.6747
55.99999999999999	45.0	134.9274
55.00000000000001	45.0	141.269
54.0	45.0	147.6759
53.00000000000001	45.0	154.1246
52.0	45.0	160.5903
51.00000000000001	45.0	167.0452
50.00000000000001	45.0	173.457
49.00000000000001	45.0	179.7874
48.0	45.0	185.9909
47.0	45.0	192.0141
46.00000000000001	45.0	197.795
45.0	45.0	203.2636
44.0	45.0	208.3419
43.0	45.0	212.9457
42.0	45.0	216.9856
41.0	45.0	220.3697
40.00000000000001	45.0	223.0058
39.0	45.0	224.8045
37.99999999999999	45.0	225.6822
37.0	45.0	225.5645
36.0	45.0	224.3892
35.0	45.0	222.1096
34.0	45.0	218.6969
33.0	45.0	214.1428
31.99999999999999	45.0	208.4611
31.0	45.0	201.6889
30.000000000000004	45.0	193.8869
29.00000000000001	45.0	185.1391
28.000000000000007	45.0	175.5516
27.00000000000001	45.0	165.2507
25.999999999999996	45.0	154.3799
25.000000000000004	45.0	143.0971
24.000000000000004	45.0	131.5701
22.999999999999993	45.0	119.9725
21.999999999999996	45.0	108.4791
21.0	45.0	97.2608
20.00000000000001	45.0	86.4804
19.000000000000014	45.0	76.2873
18.00000000000001	45.0	66.8139
17.000000000000007	45.0	58.1718
15.999999999999995	45.0	50.4488
14.999999999999996	45.0	43.7066
14.0	45.0	37.9798
12.999999999999996	45.0	33.2753
12.000000000000018	45.0	29.5728
10.999999999999993	45.0	26.8268
10.000000000000012	45.0	24.9682
8.999999999999984	45.0	23.9081
7.999999999999981	45.0	23.5416
7.000000000000025	45.0	23.752
6.000000000000026	45.0	24.4156
4.999999999999992	45.0	25.407
4.000000000000042	45.0	26.6038
3.0000000000000444	45.0	27.8915
1.9999999999999472	45.0	29.1678
0.9999999999999002	45.0	30.3472
0.0	45.0	31.3634
0.9999999999999002	225.0	32.1723
1.9999999999999472	225.0	32.7537
3.0000000000000444	225.0	33.1114
4.000000000000042	225.0	33.2735
4.999999999999992	225.0	33.2908
6.000000000000026	225.0	33.2346
6.9999999999999725	225.0	33.1939
7.999999999999981	225.0	33.2716
8.999999999999984	225.0	33.5803
10.000000000000012	225.0	34.2377
10.999999999999993	225.0	35.3617
11.999999999999988	225.0	37.0653
12.999999999999996	225.0	39.4522
14.0	225.0	42.6123
14.999999999999996	225.0	46.6175
15.999999999999995	225.0	51.5187
16.99999999999999	225.0	57.3431
17.999999999999986	225.0	64.0925
18.999999999999996	225.0	71.7424
19.999999999999993	225.0	80.2421
21.0	225.0	89.516
21.999999999999996	225.0	99.4647
23.00000000000001	225.0	109.9684
24.000000000000004	225.0	120.8899
24.99999999999999	225.0	132.078
26.000000000000007	225.0	143.3724
26.999999999999996	225.0	154.6078
28.000000000000007	225.0	165.6185
28.999999999999996	225.0	176.2429
29.999999999999993	225.0	186.3276
31.0	225.0	195.7315
31.99999999999999	225.0	204.329
33.0	225.0	212.0125
34.0	225.0	218.695
35.000000000000014	225.0	224.3112
36.0	225.0	228.818
37.000000000000014	225.0	232.1947
37.99999999999999	225.0	234.4419
38.99999999999999	225.0	235.5806
40.00000000000001	225.0	235.6499
40.999999999999986	225.0	234.7047
42.0	225.0	232.8134
43.0	225.0	230.0548
44.00000000000001	225.0	226.5152
45.0	225.0	222.2856
46.000000000000014	225.0	217.4593
47.0	225.0	212.1289
47.999999999999986	225.0	206.3848
49.00000000000001	225.0	200.3131
49.99999999999999	225.0	193.9945
51.00000000000001	225.0	187.5034
51.99999999999999	225.0	180.9073
53.000000000000014	225.0	174.2672
53.99999999999999	225.0	167.6376
55.000000000000014	225.0	161.0671
55.99999999999999	225.0	154.5995
56.999999999999986	225.0	148.2743
58.00000000000001	225.0	142.1281
58.99999999999999	225.0	136.1955
60.00000000000001	225.0	130.5098
61.0	225.0	125.1035
62.000000000000014	225.0	120.0091
63.0	225.0	115.2589
64.00000000000001	225.0	110.8853
65.0	225.0	106.9195
65.99999999999999	225.0	103.3916
67.0	225.0	100.3292
68.0	225.0	97.7562
69.00000000000001	225.0	95.6917
70.0	225.0	94.1484
71.00000000000001	225.0	93.1315
72.0	225.0	92.6375
73.00000000000001	225.0	92.6528
74.0	225.0	93.1535
74.99999999999999	225.0	94.1046
76.0	225.0	95.4602
77.0	225.0	97.1639
78.00000000000001	225.0	99.1494
79.0	225.0	101.3422
80.00000000000001	225.0	103.6608
81.0	225.0	106.0192
82.00000000000001	225.0	108.329
83.0	225.0	110.5017
83.99999999999999	225.0	112.4519
85.0	225.0	114.0997
86.0	225.0	115.3732
87.00000000000001	225.0	116.2113
88.0	225.0	116.5653
89.00000000000001	225.0	116.4015
90.0	225.0	115.7014
91.00000000000001	225.0	114.4638
92.0	225.0	112.704
92.99999999999999	225.0	110.454
94.0	225.0	107.7617
95.0	225.0	104.6894
96.00000000000001	225.0	101.3119
97.0	225.0	97.7143
98.00000000000001	225.0	93.9893
99.0	225.0	90.2345
100.00000000000001	225.0	86.5494
101.0	225.0	83.0324
102.00000000000001	225.0	79.778
103.0	225.0	76.8739
104.0	225.0	74.399
105.00000000000001	225.0	72.4214
106.0	225.0	70.9965
107.00000000000001	225.0	70.1665
108.0	225.0	69.9596
109.00000000000001	225.0	70.3899
110.0	225.0	71.4585
111.00000000000001	225.0	73.1537
112.0	225.0	75.4531
113.0	225.0	78.3248
114.00000000000001	225.0	81.7296
115.0	225.0	85.6227
116.00000000000001	225.0	89.9561
117.0	225.0	94.6804
118.00000000000001	225.0	99.7465
119.0	225.0	105.1073
120.00000000000001	225.0	110.7186
121.0	225.0	116.5403
122.0	225.0	122.5363
123.00000000000001	225.0	128.6747
124.0	225.0	134.9274
125.00000000000001	225.0	141.269
126.0	225.0	147.6759
127.00000000000001	225.0	154.1246
128.0	225.0	160.5903
129.00000000000003	225.0	167.0452
130.0	225.0	173.457
131.0	225.0	179.7874
132.0	225.0	185.9909
133.0	225.0	192.0141
134.0	225.0	197.795
135.0	225.0	203.2636
136.0	225.0	208.3419
137.0	225.0	212.9457
138.00000000000003	225.0	216.9856
139.0	225.0	220.3697
140.0	225.0	223.0058
140.99999999999997	225.0	224.8045
142.00000000000003	225.0	225.6822
143.0	225.0	225.5645
144.0	225.0	224.3892
145.0	225.0	222.1096
146.00000000000003	225.0	218.6969
147.00000000000003	225.0	214.1428
148.0	225.0	208.4611
149.0	225.0	201.6889
149.99999999999997	225.0	193.8869
151.00000000000003	225.0	185.1391
152.0	225.0	175.5516
153.0	225.0	165.2507
154.0	225.0	154.3799
155.00000000000003	225.0	143.0971
156.00000000000003	225.0	131.5701
157.0	225.0	119.9725
158.0	225.0	108.4791
158.99999999999997	225.0	97.2608
160.00000000000003	225.0	86.4804
161.0	225.0	76.2873
162.0	225.0	66.8139
163.0	225.0	58.1718
164.00000000000003	225.0	50.4488
165.00000000000003	225.0	43.7066
166.0	225.0	37.9798
167.0	225.0	33.2753
167.99999999999997	225.0	29.5728
169.00000000000003	225.0	26.8268
169.99999999999997	225.0	24.9682
170.99999999999997	225.0	23.9081
172.0	225.0	23.5416
173.00000000000003	225.0	23.752
174.00000000000003	225.0	24.4156
175.0	225.0	25.407
175.99999999999997	225.0	26.6038
176.99999999999994	225.0	27.8915
178.00000000000006	225.0	29.1678
179.0000000000001	225.0	30.3472
180.0	225.0	31.3634
179.0000000000001	45.0	32.1723
178.00000000000006	45.0	32.7537
176.99999999999994	45.0	33.1114
176.00000000000006	45.0	33.2735
175.0	45.0	33.2908
174.00000000000003	45.0	33.2346
172.99999999999997	45.0	33.1939
172.0	45.0	33.2716
171.00000000000003	45.0	33.5803
170.00000000000003	45.0	34.2377
168.99999999999997	45.0	35.3617
167.99999999999997	45.0	37.0653
167.00000000000003	45.0	39.4522
166.00000000000003	45.0	42.6123
165.00000000000003	45.0	46.6175
163.99999999999997	45.0	51.5187
163.0	45.0	57.3431
162.00000000000003	45.0	64.0925
161.00000000000003	45.0	71.7424
160.0	45.0	80.2421
159.0	45.0	89.516
158.00000000000003	45.0	99.4647
157.00000000000003	45.0	109.9684
156.00000000000003	45.0	120.8899
154.99999999999997	45.0	132.078
154.0	45.0	143.3724
153.00000000000003	45.0	154.6078
152.0	45.0	165.6185
150.99999999999997	45.0	176.2429
150.0	45.0	186.3276
149.0	45.0	195.7315
148.0	45.0	204.329
147.00000000000003	45.0	212.0125
146.0	45.0	218.695
145.0	45.0	224.3112
144.00000000000003	45.0	228.818
143.0	45.0	232.1947
142.0	45.0	234.4419
140.99999999999997	45.0	235.5806
140.00000000000003	45.0	235.6499
139.00000000000003	45.0	234.7047
138.00000000000003	45.0	232.8134
137.0	45.0	230.0548
136.0	45.0	226.5152
135.00000000000003	45.0	222.2856
134.00000000000003	45.0	217.4593
132.99999999999997	45.0	212.1289
131.99999999999997	45.0	206.3848
131.00000000000003	45.0	200.3131
130.00000000000003	45.0	193.9945
129.00000000000003	45.0	187.5034
128.0	45.0	180.9073
126.99999999999999	45.0	174.2672
126.00000000000003	45.0	167.6376
125.00000000000004	45.0	161.0671
123.99999999999997	45.0	154.5995
122.99999999999999	45.0	148.2743
122.0	45.0	142.1281
121.0	45.0	136.1955
120.00000000000001	45.0	130.5098
119.0	45.0	125.1035
118.00000000000001	45.0	120.0091
117.00000000000003	45.0	115.2589
116.00000000000004	45.0	110.8853
115.0	45.0	106.9195
114.00000000000001	45.0	103.3916
113.00000000000001	45.0	100.3292
112.00000000000003	45.0	97.7562
111.00000000000004	45.0	95.6917
110.0	45.0	94.1484
109.00000000000001	45.0	93.1315
108.00000000000003	45.0	92.6375
107.00000000000004	45.0	92.6528
106.0	45.0	93.1535
105.0	45.0	94.1046
104.00000000000001	45.0	95.4602
103.00000000000001	45.0	97.1639
102.00000000000003	45.0	99.1494
100.99999999999999	45.0	101.3422
100.0	45.0	103.6608
99.00000000000001	45.0	106.0192
98.00000000000003	45.0	108.329
96.99999999999999	45.0	110.5017
96.0	45.0	112.4519
95.0	45.0	114.0997
94.00000000000001	45.0	115.3732
93.00000000000003	45.0	116.2113
91.99999999999999	45.0	116.5653
91.0	45.0	116.4015
90.0	0.0	383.0483
89.29291116952395	0.7071426817872533	378.3496
88.58593006627854	1.4145007934175506	369.8302
87.87916453235917	2.122289895867879	357.6923
87.1727226397129	2.8307258121018455	342.2291
86.4667128053692	3.540024757356371	323.8152
85.76124390703504	4.250403468570711	302.894
85.05642539917308	4.962079332655645	279.9642
84.3523674296794	5.675270513286652	255.5627
83.64918095727445	6.390196075887154	230.2483
82.94697786971682	7.107076110446535	204.5839
82.24587110294536	7.826131851792348	179.1193
81.54597476125012	8.547585796906942	154.3744
80.84740423856572	9.271661818845425	130.8248
80.15027634097487	9.998585276774412	108.8881
79.45470941050044	10.728583121609057	88.9136
78.76082345025607	11.461883996679509	71.1741
78.0687402510143	12.198718332806749	55.8612
77.37858351923944	12.939318437111838	43.083
76.69047900661849	13.683918574821595	32.8654
76.00455464110858	14.432755043267381	25.1564
75.32094065950206	15.186066237202516	19.8326
74.63976974149092	15.944092704486447	16.7083
73.96117714519126	16.707077191101824	15.547
73.28530084406378	17.47526467438212	16.0734
72.61228166514054	18.2489023832344	17.9869
71.94226342843773	19.028239804042187	20.9756
71.27539308740191	19.813528670829413	24.7295
70.61182087020094	20.605022938156644	28.9533
69.95170042163069	21.402978735106455	33.3776
69.29518894536457	22.207654298596484	37.7691
68.64244734622547	23.019309884136224	41.9378
67.99364037210603	23.838207652018653	45.7427
67.34893675510656	24.664611526811417	49.0943
66.70850935139694	25.498787027884514	51.9555
66.07253527924108	26.34100106858589	54.3392
65.44119605454999	27.191521721553002	56.3045
64.81467772324949	28.05061794753063	57.9497
64.19317098966519	28.918559284955432	59.4052
63.57687134003648	29.79561549746857	60.8238
62.965979160175145	30.68205617643342	62.3709
62.36069984618289	31.5781502954692	64.2143
61.761243907035045	32.484165713968785	66.5142
61.16782705772538	33.400368626554155	69.4131
60.58067030155157	34.32702295544232	73.0285
59.99999999999999	35.264389682754654	77.4447
59.42604792856702	36.212726119908915	82.7084
58.8590513167294	37.17228511139536	88.8249
58.29925287015328	38.143314170462425	95.757
57.74690077310915	39.12605454453247	103.4257
57.20224866894282	40.12074020854298	111.7132
56.66555561634145	41.12759678487194	120.4673
56.13708601903233	42.14684038906587	129.5079
55.61710952646371	43.178676401255004	138.6347
55.10590090294487	44.223298163918535	147.6355
54.60373986267208	45.28088560756104	156.2956
54.11091086804023	46.3516038068849	164.4068
53.62770288864506	47.435601471194154	171.7764
53.154409118419395	48.53300937404573	178.2354
52.691326648427214	49.643938728569864	183.6457
52.23875609296496	50.76847951640774	187.9058
51.79700116679687	51.90669877984987	190.9546
51.36636821158484	53.05863888848747	192.7742
50.94716566986906	54.22431579349069	193.3898
50.539703505316	55.40371728447302	192.8683
50.14429256838126	56.59680126575802	191.3153
49.76124390703504	57.80349407069134	188.8695
49.390868022772075	59.02368883439022	185.6967
49.03347407277117	60.25724394694163	181.9825
48.68936901978189	61.503981610489745	177.9234
48.35885673209022	62.76368652482927	173.719
48.04223703674405	64.03610472697835	169.5628
47.73980473009234	65.32094261067617	165.6347
47.45184855059514	66.61786615176922	162.093
47.178650119779434	67.92650036495783	159.0685
46.920482858129056	69.2464290163152	156.6599
46.677610883583455	70.57719461432482	154.9299
46.450287901158305	71.91829869987819	153.9044
46.23875609296496	73.2692024527246	153.5723
46.043245018569806	74.62932762827676	153.8874
45.86397053617525	75.99805783448308	154.7726
45.701133755495384	77.37474015373697	156.1241
45.554920033420714	78.7586871095844	157.8183
45.42549802359849	80.14917897242118	159.7188
45.31301879088406	81.5454663925662	161.6835
45.21761500123496	82.94677334320139	163.5732
45.1394001970194	84.35230034984485	165.2582
45.07846816689916	85.76122797743554	166.6263
45.03489241843145	87.17272054092642	167.5878
45.00872576033472	88.58593000067151	168.0812
45.0	90.0	168.0759
45.00872576033472	91.41406999932849	167.5744
45.03489241843145	92.82727945907358	166.6124
45.07846816689916	94.23877202256445	165.2568
45.1394001970194	95.64769965015516	163.6027
45.21761500123496	97.05322665679864	161.7688
45.31301879088406	98.45453360743382	159.8912
45.42549802359848	99.85082102757882	158.1164
45.554920033420714	101.2413128904156	156.594
45.701133755495384	102.62525984626303	155.4687
45.86397053617525	104.00194216551692	154.8722
46.043245018569806	105.37067237172324	154.9165
46.238756092964955	106.73079754727539	155.6869
46.450287901158305	108.08170130012182	157.2369
46.677610883583455	109.42280538567519	159.5844
46.920482858129056	110.7535709836848	162.7089
47.178650119779434	112.07349963504215	166.5515
47.45184855059512	113.38213384823077	171.0158
47.73980473009234	114.67905738932384	175.9709
48.04223703674405	115.96389527302166	181.2561
48.3588567320902	117.23631347517073	186.6869
48.68936901978189	118.49601838951025	192.0621
49.03347407277117	119.74275605305839	197.1724
49.39086802277208	120.9763111656098	201.8085
49.76124390703504	122.19650592930867	205.7701
50.14429256838125	123.40319873424197	208.8745
50.539703505316005	124.59628271552698	210.9641
50.94716566986905	125.77568420650928	211.9135
51.36636821158484	126.94136111151253	211.6348
51.79700116679685	128.09330122015012	210.0816
52.23875609296496	129.23152048359225	207.2508
52.691326648427214	130.35606127143015	203.1833
53.154409118419395	131.46699062595425	197.9617
53.62770288864506	132.56439852880584	191.7072
54.11091086804023	133.64839619311508	184.5742
54.60373986267208	134.71911439243897	176.7437
55.10590090294487	135.7767018360815	168.4152
55.617109526463715	136.821323598745	159.7983
56.13708601903233	137.8531596109341	151.1034
56.66555561634144	138.87240321512806	142.5331
57.20224866894282	139.879259791457	134.2727
57.74690077310915	140.87394545546752	126.4834
58.29925287015328	141.85668582953758	119.2951
58.8590513167294	142.82771488860465	112.8013
59.42604792856702	143.7872738800911	107.0563
59.99999999999999	144.73561031724535	102.0733
60.58067030155157	145.6729770445577	97.8256
61.16782705772538	146.59963137344585	94.2489
61.76124390703503	147.5158342860312	91.2464
62.36069984618289	148.4218497045308	88.6949
62.96597916017513	149.31794382356657	86.4528
63.57687134003648	150.20438450253144	84.3687
64.19317098966519	151.08144071504458	82.2919
64.81467772324949	151.9493820524694	80.0812
65.44119605454999	152.808478278447	77.6154
66.0725352792411	153.65899893141415	74.8019
66.70850935139694	154.5012129721155	71.5847
67.34893675510656	155.3353884731886	67.9505
67.99364037210603	156.16179234798136	63.9333
68.64244734622547	156.98069011586378	59.6164
69.29518894536457	157.79234570140352	55.1325
69.95170042163069	158.59702126489356	50.661
70.61182087020094	159.39497706184335	46.4229
71.2753930874019	160.1864713291706	42.674
71.94226342843773	160.9717601959578	39.6954
72.61228166514054	161.7510976167656	37.7823
73.28530084406377	162.52473532561788	37.2321
73.96117714519126	163.29292280889817	38.3315
74.63976974149092	164.05590729551355	41.3425
75.32094065950206	164.8139337627975	46.4901
76.00455464110858	165.56724495673262	53.9495
76.6904790066185	166.31608142517842	63.8356
77.37858351923944	167.06068156288816	76.1937
78.0687402510143	167.80128166719328	90.993
78.76082345025605	168.5381160033205	108.1225
79.45470941050044	169.27141687839094	127.3896
80.15027634097487	170.0014147232256	148.5221
80.84740423856572	170.72833818115458	171.1731
81.54597476125012	171.45241420309307	194.9284
82.24587110294536	172.17386814820765	219.3175
82.94697786971682	172.8929238895535	243.8261
83.64918095727445	173.60980392411287	267.9111
84.3523674296794	174.32472948671335	291.0168
85.05642539917308	175.03792066734437	312.5919
85.76124390703502	175.7495965314293	332.1072
86.4667128053692	176.45997524264365	349.0721
87.17272263971289	177.16927418789817	363.051
87.87916453235917	177.87771010413212	373.6772
88.58593006627854	178.58549920658245	380.6655
89.29291116952395	179.29285731821275	383.8216
90.0	180.0	383.0483
90.70708883047607	180.70714268178725	378.3496
91.41406993372146	181.41450079341755	369.8302
92.12083546764083	182.12228989586788	357.6923
92.82727736028711	182.83072581210183	342.2291
93.5332871946308	183.54002475735635	323.8152
94.23875609296496	184.2504034685707	302.894
94.94357460082692	184.96207933265563	279.9642
95.64763257032061	185.67527051328665	255.5627
96.35081904272555	186.39019607588713	230.2483
97.05302213028318	187.1070761104465	204.5839
97.75412889705464	187.82613185179233	179.1193
98.45402523874989	188.54758579690696	154.3744
99.15259576143428	189.27166181884542	130.8248
99.84972365902512	189.9985852767744	108.8881
100.54529058949956	190.72858312160906	88.9136
101.23917654974393	191.4618839966795	71.1741
101.93125974898571	192.19871833280675	55.8612
102.62141648076054	192.93931843711184	43.083
103.30952099338153	193.68391857482158	32.8654
103.99544535889142	194.43275504326738	25.1564
104.67905934049796	195.18606623720254	19.8326
105.36023025850908	195.94409270448645	16.7083
106.03882285480874	196.7070771911018	15.547
106.71469915593623	197.4752646743821	16.0734
107.38771833485946	198.2489023832344	17.9869
108.05773657156229	199.0282398040422	20.9756
108.7246069125981	199.8135286708294	24.7295
109.38817912979906	200.60502293815665	28.9533
110.04829957836931	201.40297873510644	33.3776
110.70481105463544	202.20765429859648	37.7691
111.35755265377453	203.01930988413622	41.9378
112.00635962789397	203.83820765201864	45.7427
112.65106324489344	204.6646115268114	49.0943
113.29149064860306	205.49878702788448	51.9555
113.92746472075892	206.34100106858588	54.3392
114.55880394545001	207.191521721553	56.3045
115.18532227675053	208.05061794753064	57.9497
115.8068290103348	208.91855928495542	59.4052
116.42312865996352	209.79561549746856	60.8238
117.03402083982486	210.68205617643343	62.3709
117.63930015381712	211.5781502954692	64.2143
118.23875609296496	212.48416571396876	66.5142
118.83217294227461	213.40036862655413	69.4131
119.41932969844842	214.32702295544232	73.0285
120.00000000000001	215.26438968275463	77.4447
120.573952071433	216.2127261199089	82.7084
121.14094868327061	217.17228511139535	88.8249
121.70074712984672	218.14331417046245	95.757
122.25309922689084	219.12605454453248	103.4257
122.79775133105717	220.12074020854297	111.7132
123.33444438365854	221.1275967848719	120.4673
123.86291398096766	222.1468403890659	129.5079
124.38289047353629	223.17867640125502	138.6347
124.89409909705513	224.2232981639185	147.6355
125.39626013732791	225.28088560756103	156.2956
125.88908913195978	226.35160380688492	164.4068
126.37229711135494	227.43560147119416	171.7764
126.84559088158062	228.53300937404572	178.2354
127.30867335157278	229.64393872856982	183.6457
127.76124390703504	230.7684795164077	187.9058
128.20299883320317	231.90669877984988	190.9546
128.6336317884152	233.05863888848748	192.7742
129.05283433013093	234.2243157934907	193.3898
129.460296494684	235.40371728447298	192.8683
129.85570743161875	236.59680126575802	191.3153
130.23875609296496	237.80349407069136	188.8695
130.60913197722795	239.0236888343902	185.6967
130.96652592722884	240.25724394694157	181.9825
131.31063098021812	241.50398161048972	177.9234
131.6411432679098	242.7636865248293	173.719
131.95776296325596	244.03610472697835	169.5628
132.26019526990768	245.32094261067616	165.6347
132.54815144940486	246.6178661517692	162.093
132.8213498802206	247.92650036495786	159.0685
133.07951714187095	249.2464290163152	156.6599
133.32238911641656	250.5771946143248	154.9299
133.5497120988417	251.91829869987816	153.9044
133.76124390703504	253.26920245272458	153.5723
133.9567549814302	254.62932762827677	153.8874
134.13602946382477	255.99805783448306	154.7726
134.2988662445046	257.374740153737	156.1241
134.44507996657927	258.75868710958434	157.8183
134.57450197640154	260.14917897242117	159.7188
134.68698120911597	261.5454663925662	161.6835
134.78238499876502	262.94677334320136	163.5732
134.8605998029806	264.3523003498448	165.2582
134.92153183310086	265.7612279774355	166.6263
134.96510758156856	267.17272054092643	167.5878
134.99127423966527	268.5859300006715	168.0812
135.0	270.0	168.0759
134.99127423966527	271.4140699993285	167.5744
134.96510758156856	272.82727945907357	166.6124
134.92153183310086	274.2387720225645	165.2568
134.8605998029806	275.6476996501551	163.6027
134.78238499876502	277.0532266567986	161.7688
134.68698120911597	278.45453360743375	159.8912
134.57450197640154	279.85082102757883	158.1164
134.44507996657927	281.2413128904156	156.594
134.2988662445046	282.625259846263	155.4687
134.13602946382477	284.0019421655169	154.8722
133.9567549814302	285.37067237172323	154.9165
133.76124390703504	286.7307975472754	155.6869
133.5497120988417	288.08170130012184	157.2369
133.32238911641656	289.42280538567513	159.5844
133.07951714187095	290.75357098368477	162.7089
132.82134988022057	292.0734996350422	166.5515
132.54815144940488	293.38213384823075	171.0158
132.26019526990768	294.6790573893238	175.9709
131.95776296325596	295.9638952730216	181.2561
131.6411432679098	297.23631347517073	186.6869
131.31063098021812	298.49601838951025	192.0621
130.96652592722884	299.7427560530584	197.1724
130.60913197722795	300.9763111656098	201.8085
130.23875609296496	302.1965059293086	205.7701
129.85570743161873	303.403198734242	208.8745
129.46029649468403	304.59628271552697	210.9641
129.05283433013096	305.7756842065093	211.9135
128.6336317884152	306.9413611115125	211.6348
128.20299883320317	308.0933012201501	210.0816
127.76124390703505	309.23152048359225	207.2508
127.3086733515728	310.3560612714301	203.1833
126.84559088158062	311.4669906259543	197.9617
126.37229711135495	312.5643985288058	191.7072
125.88908913195978	313.6483961931151	184.5742
125.39626013732794	314.71911439243894	176.7437
124.89409909705515	315.77670183608143	168.4152
124.38289047353632	316.821323598745	159.7983
123.86291398096766	317.85315961093414	151.1034
123.33444438365856	318.8724032151281	142.5331
122.7977513310572	319.879259791457	134.2727
122.25309922689087	320.8739454554675	126.4834
121.70074712984675	321.8566858295375	119.2951
121.14094868327061	322.82771488860465	112.8013
120.57395207143298	323.7872738800911	107.0563
120.00000000000001	324.73561031724535	102.0733
119.41932969844845	325.6729770445577	97.8256
118.83217294227461	326.59963137344585	94.2489
118.23875609296496	327.51583428603124	91.2464
117.63930015381712	328.4218497045308	88.6949
117.03402083982486	329.31794382356657	86.4528
116.42312865996352	330.2043845025314	84.3687
115.8068290103348	331.08144071504455	82.2919
115.18532227675053	331.9493820524694	80.0812
114.55880394545002	332.808478278447	77.6154
113.92746472075895	333.6589989314141	74.8019
113.29149064860304	334.5012129721155	71.5847
112.65106324489344	335.3353884731886	67.9505
112.00635962789399	336.16179234798136	63.9333
111.35755265377455	336.98069011586375	59.6164
110.70481105463546	337.79234570140346	55.1325
110.04829957836931	338.59702126489356	50.661
109.38817912979906	339.39497706184335	46.4229
108.7246069125981	340.18647132917056	42.674
108.05773657156229	340.9717601959578	39.6954
107.38771833485946	341.7510976167656	37.7823
106.71469915593623	342.5247353256179	37.2321
106.03882285480876	343.2929228088982	38.3315
105.36023025850909	344.0559072955135	41.3425
104.67905934049797	344.8139337627975	46.4901
103.99544535889142	345.5672449567326	53.9495
103.30952099338151	346.3160814251784	63.8356
102.62141648076056	347.06068156288813	76.1937
101.93125974898572	347.8012816671932	90.993
101.23917654974393	348.5381160033205	108.1225
100.54529058949956	349.27141687839094	127.3896
99.84972365902513	350.0014147232256	148.5221
99.15259576143428	350.7283381811546	171.1731
98.4540252387499	351.45241420309304	194.9284
97.75412889705464	352.17386814820765	219.3175
97.05302213028318	352.89292388955346	243.8261
96.35081904272556	353.60980392411284	267.9111
95.64763257032062	354.32472948671335	291.0168
94.94357460082692	355.03792066734434	312.5919
94.23875609296496	355.7495965314293	332.1072
93.53328719463082	356.4599752426436	349.0721
92.82727736028713	357.16927418789817	363.051
92.12083546764086	357.8777101041321	373.6772
91.41406993372146	358.5854992065825	380.6655
90.70708883047607	359.2928573182127	383.8216
90.0	90.0	208.3798
89.29291116952395	89.29285731821274	206.0493
88.58593006627854	88.58549920658245	202.5702
87.87916453235917	87.87771010413212	198.0194
87.1727226397129	87.16927418789815	192.5001
86.4667128053692	86.45997524264364	186.1387
85.76124390703504	85.74959653142929	179.0811
85.05642539917308	85.03792066734437	171.4874
84.3523674296794	84.32472948671335	163.5273
83.64918095727445	83.60980392411285	155.3746
82.94697786971682	82.89292388955346	147.2013
82.24587110294536	82.17386814820766	139.1731
81.54597476125012	81.45241420309306	131.4436
80.84740423856572	80.72833818115458	124.1505
80.15027634097487	80.0014147232256	117.4117
79.45470941050044	79.27141687839094	111.3219
78.76082345025607	78.5381160033205	105.9514
78.0687402510143	77.80128166719327	101.3444
77.37858351923944	77.06068156288816	97.5193
76.69047900661849	76.31608142517841	94.4698
76.00455464110858	75.56724495673262	92.1664
75.32094065950206	74.81393376279749	90.5594
74.63976974149092	74.05590729551355	89.5823
73.96117714519126	73.29292280889818	89.1557
73.28530084406378	72.52473532561788	89.192
72.61228166514054	71.7510976167656	89.5994
71.94226342843773	70.97176019595781	90.2867
71.27539308740191	70.18647132917059	91.1677
70.61182087020094	69.39497706184336	92.165
69.95170042163069	68.59702126489356	93.2134
69.29518894536457	67.79234570140352	94.2627
68.64244734622547	66.98069011586378	95.2794
67.99364037210603	66.16179234798135	96.2479
67.34893675510656	65.33538847318859	97.1704
66.70850935139694	64.50121297211548	98.0666
66.07253527924108	63.65899893141411	98.9715
65.44119605454999	62.808478278447	99.9335
64.81467772324949	61.94938205246937	101.011
64.19317098966519	61.081440715044565	102.2691
63.57687134003648	60.20438450253143	103.7756
62.965979160175145	59.31794382356658	105.5969
62.36069984618289	58.4218497045308	107.7941
61.761243907035045	57.515834286031215	110.4189
61.16782705772538	56.59963137344585	113.5102
60.58067030155157	55.67297704455769	117.0914
59.99999999999999	54.735610317245346	121.1676
59.42604792856702	53.787273880091085	125.7245
58.8590513167294	52.827714888604646	130.7276
58.29925287015328	51.85668582953758	136.1223
57.74690077310915	50.87394545546753	141.8352
57.20224866894282	49.87925979145702	147.7756
56.66555561634145	48.87240321512806	153.8387
56.13708601903233	47.85315961093413	159.9085
55.61710952646371	46.821323598745	165.862
55.10590090294487	45.776701836081465	171.5731
54.60373986267208	44.71911439243896	176.9171
54.11091086804023	43.6483961931151	181.7753
53.62770288864506	42.564398528805846	186.039
53.154409118419395	41.46699062595427	189.6135
52.691326648427214	40.356061271430136	192.4215
52.23875609296496	39.23152048359226	194.4057
51.79700116679687	38.09330122015014	195.5311
51.36636821158484	36.941361111512535	195.7859
50.94716566986906	35.77568420650932	195.182
50.539703505316	34.59628271552699	193.7542
50.14429256838126	33.40319873424199	191.5593
49.76124390703504	32.19650592930866	188.673
49.390868022772075	30.976311165609783	185.1881
49.03347407277117	29.742756053058372	181.2104
48.68936901978189	28.496018389510258	176.8547
48.35885673209022	27.236313475170732	172.2414
48.04223703674405	25.963895273021652	167.4917
47.73980473009234	24.679057389323834	162.7237
47.45184855059514	23.382133848230776	158.0485
47.178650119779434	22.07349963504216	153.567
46.920482858129056	20.753570983684796	149.3665
46.677610883583455	19.422805385675183	145.519
46.450287901158305	18.08170130012181	142.0791
46.23875609296496	16.730797547275397	139.0837
46.043245018569806	15.370672371723243	136.5518
45.86397053617525	14.001942165516926	134.4849
45.701133755495384	12.625259846263035	132.8692
45.554920033420714	11.241312890415616	131.6769
45.42549802359849	9.850821027578828	130.8695
45.31301879088406	8.454533607433808	130.4
45.21761500123496	7.053226656798624	130.2166
45.1394001970194	5.647699650155149	130.266
45.07846816689916	4.238772022564465	130.4961
45.03489241843145	2.8272794590735852	130.8594
45.00872576033472	1.414069999328503	131.3154
45.0	4.961562726608714e-15	131.8328
45.00872576033472	358.5859300006715	132.3911
45.03489241843145	357.17272054092643	132.9812
45.07846816689916	355.76122797743557	133.6062
45.1394001970194	354.3523003498448	134.2802
45.21761500123496	352.94677334320136	135.028
45.31301879088406	351.5454663925662	135.8829
45.42549802359848	350.14917897242117	136.8849
45.554920033420714	348.7586871095844	138.0776
45.701133755495384	347.374740153737	139.5059
45.86397053617525	345.99805783448306	141.2127
46.043245018569806	344.62932762827677	143.236
46.238756092964955	343.26920245272464	145.6061
46.450287901158305	341.91829869987816	148.3432
46.677610883583455	340.5771946143248	151.4549
46.920482858129056	339.2464290163152	154.9353
47.178650119779434	337.92650036495786	158.7631
47.45184855059512	336.61786615176925	162.9023
47.73980473009234	335.3209426106762	167.3017
48.04223703674405	334.03610472697835	171.8962
48.3588567320902	332.76368652482927	176.6089
48.68936901978189	331.50398161048975	181.3524
49.03347407277117	330.2572439469416	186.0325
49.39086802277208	329.0236888343902	190.5505
49.76124390703504	327.80349407069133	194.8069
50.14429256838125	326.596801265758	198.7046
50.539703505316005	325.40371728447303	202.1524
50.94716566986905	324.2243157934907	205.0681
51.36636821158484	323.05863888848745	207.381
51.79700116679685	321.9066987798499	209.035
52.23875609296496	320.76847951640775	209.9897
52.691326648427214	319.6439387285699	210.2219
53.154409118419395	318.5330093740457	209.7264
53.62770288864506	317.43560147119416	208.5156
54.11091086804023	316.3516038068849	206.6185
54.60373986267208	315.28088560756106	204.0799
55.10590090294487	314.2232981639185	200.9579
55.617109526463715	313.17867640125496	197.3218
56.13708601903233	312.14684038906586	193.249
56.66555561634144	311.12759678487197	188.8223
57.20224866894282	310.120740208543	184.1266
57.74690077310915	309.1260545445325	179.246
58.29925287015328	308.1433141704624	174.2611
58.8590513167294	307.17228511139535	169.2459
59.42604792856702	306.2127261199089	164.2666
59.99999999999999	305.26438968275465	159.3792
60.58067030155157	304.3270229554423	154.6289
61.16782705772538	303.40036862655415	150.0498
61.76124390703503	302.4841657139688	145.6648
62.36069984618289	301.5781502954692	141.4866
62.96597916017513	300.68205617643343	137.5189
63.57687134003648	299.7956154974686	133.7584
64.19317098966519	298.91855928495545	130.197
64.81467772324949	298.0506179475306	126.8237
65.44119605454999	297.191521721553	123.6276
66.0725352792411	296.3410010685859	120.6001
66.70850935139694	295.49878702788453	117.7373
67.34893675510656	294.6646115268114	115.0418
67.99364037210603	293.83820765201864	112.5243
68.64244734622547	293.0193098841362	110.2048
69.29518894536457	292.2076542985965	108.1127
69.95170042163069	291.40297873510644	106.287
70.61182087020094	290.60502293815665	104.775
71.2753930874019	289.81352867082944	103.6311
71.94226342843773	289.0282398040422	102.9146
72.61228166514054	288.2489023832344	102.6872
73.28530084406377	287.4752646743821	103.01
73.96117714519126	286.7070771911018	103.9402
74.63976974149092	285.9440927044865	105.5275
75.32094065950206	285.1860662372025	107.8111
76.00455464110858	284.4327550432674	110.8164
76.6904790066185	283.6839185748216	114.552
77.37858351923944	282.93931843711187	119.0077
78.0687402510143	282.1987183328067	124.1522
78.76082345025605	281.4618839966795	129.9327
79.45470941050044	280.72858312160906	136.2746
80.15027634097487	279.9985852767744	143.0818
80.84740423856572	279.2716618188454	150.2386
81.54597476125012	278.54758579690696	157.612
82.24587110294536	277.82613185179235	165.0548
82.94697786971682	277.10707611044654	172.4093
83.64918095727445	276.39019607588716	179.5119
84.3523674296794	275.67527051328665	186.1979
85.05642539917308	274.96207933265566	192.3062
85.76124390703502	274.2504034685707	197.6848
86.4667128053692	273.5400247573564	202.1954
87.17272263971289	272.83072581210183	205.7179
87.87916453235917	272.1222898958679	208.1549
88.58593006627854	271.4145007934176	209.4348
89.29291116952395	270.7071426817872	209.5141
90.0	270.0	208.3798
90.70708883047607	269.2928573182127	206.0493
91.41406993372146	268.5854992065824	202.5702
92.12083546764083	267.8777101041321	198.0194
92.82727736028711	267.16927418789817	192.5001
93.5332871946308	266.4599752426436	186.1387
94.23875609296496	265.7495965314293	179.0811
94.94357460082692	265.03792066734434	171.4874
95.64763257032061	264.32472948671335	163.5273
96.35081904272555	263.60980392411284	155.3746
97.05302213028318	262.89292388955346	147.2013
97.75412889705464	262.17386814820765	139.1731
98.45402523874989	261.45241420309304	131.4436
99.15259576143428	260.7283381811546	124.1505
99.84972365902512	260.0014147232256	117.4117
100.54529058949956	259.27141687839094	111.3219
101.23917654974393	258.5381160033205	105.9514
101.93125974898571	257.8012816671933	101.3444
102.62141648076054	257.06068156288813	97.5193
103.30952099338153	256.31608142517837	94.4698
103.99544535889142	255.56724495673262	92.1664
104.67905934049796	254.8139337627975	90.5594
105.36023025850908	254.05590729551355	89.5823
106.03882285480874	253.2929228088982	89.1557
106.71469915593623	252.52473532561788	89.192
107.38771833485946	251.7510976167656	89.5994
108.05773657156229	250.9717601959578	90.2867
108.7246069125981	250.18647132917056	91.1677
109.38817912979906	249.39497706184335	92.165
110.04829957836931	248.59702126489356	93.2134
110.70481105463544	247.79234570140352	94.2627
111.35755265377453	246.98069011586378	95.2794
112.00635962789397	246.16179234798136	96.2479
112.65106324489344	245.33538847318857	97.1704
113.29149064860306	244.50121297211547	98.0666
113.92746472075892	243.6589989314141	98.9715
114.55880394545001	242.808478278447	99.9335
115.18532227675053	241.9493820524694	101.011
115.8068290103348	241.08144071504458	102.2691
116.42312865996352	240.2043845025314	103.7756
117.03402083982486	239.31794382356657	105.5969
117.63930015381712	238.4218497045308	107.7941
118.23875609296496	237.5158342860312	110.4189
118.83217294227461	236.59963137344585	113.5102
119.41932969844842	235.67297704455768	117.0914
120.00000000000001	234.73561031724535	121.1676
120.573952071433	233.78727388009108	125.7245
121.14094868327061	232.82771488860465	130.7276
121.70074712984672	231.85668582953755	136.1223
122.25309922689084	230.87394545546752	141.8352
122.79775133105717	229.879259791457	147.7756
123.33444438365854	228.8724032151281	153.8387
123.86291398096766	227.8531596109341	159.9085
124.38289047353629	226.82132359874498	165.862
124.89409909705513	225.7767018360815	171.5731
125.39626013732791	224.71911439243897	176.9171
125.88908913195978	223.64839619311508	181.7753
126.37229711135494	222.56439852880584	186.039
126.84559088158062	221.46699062595428	189.6135
127.30867335157278	220.35606127143015	192.4215
127.76124390703504	219.23152048359228	194.4057
128.20299883320317	218.0933012201501	195.5311
128.6336317884152	216.94136111151252	195.7859
129.05283433013093	215.7756842065093	195.182
129.460296494684	214.59628271552702	193.7542
129.85570743161875	213.40319873424195	191.5593
130.23875609296496	212.19650592930864	188.673
130.60913197722795	210.9763111656098	185.1881
130.96652592722884	209.74275605305837	181.2104
131.31063098021812	208.49601838951028	176.8547
131.6411432679098	207.2363134751707	172.2414
131.95776296325596	205.96389527302162	167.4917
132.26019526990768	204.67905738932384	162.7237
132.54815144940486	203.38213384823078	158.0485
132.8213498802206	202.07349963504214	153.567
133.07951714187095	200.75357098368477	149.3665
133.32238911641656	199.4228053856752	145.519
133.5497120988417	198.08170130012184	142.0791
133.76124390703504	196.73079754727542	139.0837
133.9567549814302	195.3706723717232	136.5518
134.13602946382477	194.0019421655169	134.4849
134.2988662445046	192.62525984626305	132.8692
134.44507996657927	191.24131289041563	131.6769
134.57450197640154	189.8508210275788	130.8695
134.68698120911597	188.4545336074338	130.4
134.78238499876502	187.0532266567986	130.2166
134.8605998029806	185.64769965015518	130.266
134.92153183310086	184.2387720225645	130.4961
134.96510758156856	182.82727945907357	130.8594
134.99127423966527	181.4140699993285	131.3154
135.0	180.0	131.8328
134.99127423966527	178.58593000067157	132.3911
134.96510758156856	177.1727205409264	132.9812
134.92153183310086	175.76122797743554	133.6062
134.8605998029806	174.35230034984485	134.2802
134.78238499876502	172.94677334320141	135.028
134.68698120911597	171.54546639256625	135.8829
134.57450197640154	170.14917897242117	136.8849
134.44507996657927	168.7586871095844	138.0776
134.2988662445046	167.37474015373698	139.5059
134.13602946382477	165.9980578344831	141.2127
133.9567549814302	164.62932762827674	143.236
133.76124390703504	163.2692024527246	145.6061
133.5497120988417	161.9182986998782	148.3432
133.32238911641656	160.57719461432484	151.4549
133.07951714187095	159.24642901631526	154.9353
132.82134988022057	157.92650036495783	158.7631
132.54815144940488	156.61786615176925	162.9023
132.26019526990768	155.32094261067618	167.3017
131.95776296325596	154.03610472697838	171.8962
131.6411432679098	152.76368652482927	176.6089
131.31063098021812	151.50398161048975	181.3524
130.96652592722884	150.25724394694163	186.0325
130.60913197722795	149.02368883439024	190.5505
130.23875609296496	147.80349407069139	194.8069
129.85570743161873	146.596801265758	198.7046
129.46029649468403	145.403717284473	202.1524
129.05283433013096	144.22431579349072	205.0681
128.6336317884152	143.0586388884875	207.381
128.20299883320317	141.90669877984988	209.035
127.76124390703505	140.76847951640775	209.9897
127.3086733515728	139.64393872856988	210.2219
126.84559088158062	138.53300937404575	209.7264
126.37229711135495	137.4356014711942	208.5156
125.88908913195978	136.35160380688492	206.6185
125.39626013732794	135.28088560756106	204.0799
124.89409909705515	134.22329816391854	200.9579
124.38289047353632	133.17867640125502	197.3218
123.86291398096766	132.14684038906586	193.249
123.33444438365856	131.12759678487194	188.8223
122.7977513310572	130.120740208543	184.1266
122.25309922689087	129.12605454453248	179.246
121.70074712984675	128.14331417046245	174.2611
121.14094868327061	127.17228511139534	169.2459
120.57395207143298	126.21272611990892	164.2666
120.00000000000001	125.26438968275468	159.3792
119.41932969844845	124.32702295544235	154.6289
118.83217294227461	123.40036862655414	150.0498
118.23875609296496	122.48416571396879	145.6648
117.63930015381712	121.57815029546921	141.4866
117.03402083982486	120.68205617643345	137.5189
116.42312865996352	119.79561549746859	133.7584
115.8068290103348	118.91855928495542	130.197
115.18532227675053	118.05061794753063	126.8237
114.55880394545002	117.19152172155302	123.6276
113.92746472075895	116.34100106858591	120.6001
113.29149064860304	115.49878702788452	117.7373
112.65106324489344	114.66461152681141	115.0418
112.00635962789399	113.83820765201867	112.5243
111.35755265377455	113.01930988413625	110.2048
110.70481105463546	112.20765429859652	108.1127
110.04829957836931	111.40297873510644	106.287
109.38817912979906	110.60502293815665	104.775
108.7246069125981	109.81352867082943	103.6311
108.05773657156229	109.02823980404222	102.9146
107.38771833485946	108.2489023832344	102.6872
106.71469915593623	107.47526467438213	103.01
106.03882285480876	106.70707719110183	103.9402
105.36023025850909	105.94409270448648	105.5275
104.67905934049797	105.18606623720254	107.8111
103.99544535889142	104.43275504326738	110.8164
103.30952099338151	103.68391857482159	114.552
102.62141648076056	102.93931843711185	119.0077
101.93125974898572	102.19871833280676	124.1522
101.23917654974393	101.4618839966795	129.9327
100.54529058949956	100.72858312160906	136.2746
99.84972365902513	99.99858527677442	143.0818
99.15259576143428	99.27166181884544	150.2386
98.4540252387499	98.54758579690696	157.612
97.75412889705464	97.82613185179234	165.0548
97.05302213028318	97.10707611044654	172.4093
96.35081904272556	96.39019607588716	179.5119
95.64763257032062	95.67527051328666	186.1979
94.94357460082692	94.96207933265563	192.3062
94.23875609296496	94.25040346857071	197.6848
93.53328719463082	93.54002475735638	202.1954
92.82727736028713	92.83072581210186	205.7179
92.12083546764086	92.12228989586791	208.1549
91.41406993372146	91.41450079341756	209.4348
90.70708883047607	90.70714268178726	209.5141
90.0	0.0	497.6766
90.0	1.0	488.4122
90.0	2.0	476.931
90.0	3.0000000000000004	463.4819
90.0	4.0	448.3522
90.0	5.0	431.8589
90.0	6.000000000000001	414.339
90.0	7.0	396.1388
90.0	8.0	377.6043
90.0	9.0	359.0701
90.0	10.0	340.8506
90.0	11.0	323.2308
90.0	12.0	306.459
90.0	13.0	290.7408
90.0	14.0	276.2345
90.0	14.999999999999998	263.0491
90.0	16.0	251.2428
90.0	17.000000000000004	240.825
90.0	18.0	231.7582
90.0	19.0	223.9635
90.0	20.0	217.3254
90.0	21.0	211.6995
90.0	22.0	206.92
90.0	23.0	202.808
90.0	24.000000000000004	199.1798
90.0	25.0	195.8552
90.0	26.0	192.6654
90.0	26.999999999999996	189.4596
90.0	28.0	186.1109
90.0	29.000000000000004	182.5208
90.0	29.999999999999996	178.6226
90.0	31.0	174.3824
90.0	32.0	169.7999
90.0	33.0	164.9063
90.0	34.00000000000001	159.7616
90.0	35.0	154.4509
90.0	36.0	149.079
90.0	37.0	143.7644
90.0	38.0	138.6333
90.0	39.0	133.8129
90.0	40.0	129.4249
90.0	41.0	125.5798
90.0	42.0	122.3709
90.0	43.0	119.8705
90.0	44.0	118.126
90.0	45.0	117.1578
90.0	46.00000000000001	116.9587
90.0	47.0	117.4937
90.0	48.00000000000001	118.7021
90.0	49.00000000000001	120.5004
90.0	50.0	122.7858
90.0	51.0	125.4414
90.0	52.0	128.3411
90.0	53.0	131.3557
90.0	54.0	134.3584
90.0	55.0	137.2309
90.0	56.0	139.868
90.0	57.00000000000001	142.1829
90.0	58.00000000000001	144.1103
90.0	59.00000000000001	145.6094
90.0	59.99999999999999	146.6655
90.0	61.0	147.2903
90.0	62.0	147.5208
90.0	63.0	147.4177
90.0	64.0	147.0617
90.0	65.0	146.5502
90.0	66.0	145.992
90.0	67.0	145.502
90.0	68.0	145.196
90.0	69.0	145.1849
90.0	70.0	145.569
90.0	71.0	146.4338
90.0	72.0	147.8449
90.0	73.0	149.8454
90.0	74.0	152.4532
90.0	75.0	155.6595
90.0	76.0	159.4294
90.0	77.0	163.7024
90.0	78.0	168.395
90.0	79.0	173.4035
90.0	80.0	178.6089
90.0	81.0	183.8807
90.0	82.0	189.083
90.0	83.0	194.0795
90.0	84.0	198.7391
90.0	85.0	202.9414
90.0	86.0	206.581
90.0	87.0	209.572
90.0	88.0	211.8512
90.0	89.0	213.3801
90.0	90.0	214.1462
90.0	91.0	214.1632
90.0	92.0	213.4697
90.0	93.0	212.1273
90.0	94.0	210.2171
90.0	95.0	207.8367
90.0	96.00000000000001	205.0945
90.0	97.0	202.106
90.0	98.0	198.9878
90.0	99.0	195.853
90.0	100.0	192.8061
90.0	101.0	189.939
90.0	102.0	187.3271
90.0	103.0	185.0266
90.0	104.0	183.0726
90.0	105.00000000000001	181.478
90.0	106.0	180.2341
90.0	107.0	179.3114
90.0	108.0	178.6619
90.0	109.0	178.2222
90.0	110.0	177.9171
90.0	111.0	177.6637
90.0	112.0	177.3761
90.0	113.0	176.9698
90.0	114.00000000000001	176.3665
90.0	115.0	175.4978
90.0	116.00000000000001	174.3093
90.0	117.0	172.7633
90.0	118.00000000000001	170.8407
90.0	119.0	168.5426
90.0	119.99999999999999	165.8902
90.0	121.0	162.9241
90.0	122.0	159.7026
90.0	123.00000000000001	156.2992
90.0	124.0	152.7991
90.0	125.00000000000001	149.2958
90.0	126.0	145.8865
90.0	127.00000000000001	142.668
90.0	128.0	139.7326
90.0	129.0	137.1635
90.0	130.0	135.0323
90.0	131.0	133.395
90.0	132.0	132.2909
90.0	133.0	131.7411
90.0	134.0	131.7483
90.0	135.0	132.2977
90.0	136.0	133.3588
90.0	137.0	134.8882
90.0	138.0	136.8328
90.0	139.0	139.1342
90.0	140.0	141.7325
90.0	141.0	144.5716
90.0	142.0	147.603
90.0	143.0	150.7906
90.0	144.0	154.1139
90.0	145.0	157.5711
90.0	146.0	161.1812
90.0	147.0	164.9845
90.0	148.0	169.0427
90.0	149.0	173.4373
90.0	150.0	178.2668
90.0	151.0	183.6432
90.0	152.0	189.6868
90.0	153.0	196.521
90.0	154.0	204.2653
90.0	155.0	213.0298
90.0	156.0	222.9073
90.0	157.0	233.9676
90.0	158.0	246.2514
90.0	159.0	259.7645
90.0	160.0	274.4746
90.0	161.0	290.3075
90.0	162.0	307.1462
90.0	163.0	324.8308
90.0	164.0	343.1603
90.0	165.0	361.8961
90.0	166.0	380.7668
90.0	167.0	399.4746
90.0	168.0	417.703
90.0	169.0	435.1253
90.0	170.0	451.4142
90.0	171.0	466.251
90.0	172.0	479.3361
90.0	173.0	490.3973
90.0	174.0	499.1996
90.0	175.0	505.5523
90.0	176.0	509.3154
90.0	177.0	510.4049
90.0	178.0	508.7952
90.0	179.0	504.5211
90.0	180.0	497.6766
90.0	181.0	488.4122
90.0	181.99999999999997	476.931
90.0	182.99999999999997	463.4819
90.0	183.99999999999997	448.3522
90.0	184.99999999999997	431.8589
90.0	185.99999999999997	414.339
90.0	186.99999999999997	396.1388
90.0	188.0	377.6043
90.0	188.99999999999997	359.0701
90.0	190.0	340.8506
90.0	190.99999999999997	323.2308
90.0	192.0	306.459
90.0	192.99999999999997	290.7408
90.0	193.99999999999997	276.2345
90.0	194.99999999999997	263.0491
90.0	195.99999999999997	251.2428
90.0	197.0	240.825
90.0	197.99999999999997	231.7582
90.0	199.0	223.9635
90.0	199.99999999999997	217.3254
90.0	201.0	211.6995
90.0	201.99999999999997	206.92
90.0	203.0	202.808
90.0	203.99999999999997	199.1798
90.0	204.99999999999997	195.8552
90.0	206.0	192.6654
90.0	206.99999999999997	189.4596
90.0	208.0	186.1109
90.0	208.99999999999997	182.5208
90.0	210.0	178.6226
90.0	210.99999999999997	174.3824
90.0	212.0	169.7999
90.0	212.99999999999997	164.9063
90.0	214.0	159.7616
90.0	215.0	154.4509
90.0	216.0	149.079
90.0	217.0	143.7644
90.0	217.99999999999997	138.6333
90.0	219.00000000000003	133.8129
90.0	219.99999999999997	129.4249
90.0	220.99999999999997	125.5798
90.0	221.99999999999997	122.3709
90.0	223.0	119.8705
90.0	224.0	118.126
90.0	224.99999999999997	117.1578
90.0	226.0	116.9587
90.0	227.0	117.4937
90.0	228.0	118.7021
90.0	229.0	120.5004
90.0	230.0	122.7858
90.0	230.99999999999997	125.4414
90.0	232.00000000000003	128.3411
90.0	233.0	131.3557
90.0	233.99999999999997	134.3584
90.0	234.99999999999994	137.2309
90.0	236.0	139.868
90.0	237.0	142.1829
90.0	238.0	144.1103
90.0	239.0	145.6094
90.0	239.99999999999994	146.6655
90.0	241.0	147.2903
90.0	242.0	147.5208
90.0	242.99999999999997	147.4177
90.0	243.99999999999994	147.0617
90.0	245.0	146.5502
90.0	246.0	145.992
90.0	247.0	145.502
90.0	248.0	145.196
90.0	248.99999999999997	145.1849
90.0	250.0	145.569
90.0	251.0	146.4338
90.0	252.0	147.8449
90.0	252.99999999999997	149.8454
90.0	254.0	152.4532
90.0	255.0	155.6595
90.0	256.0	159.4294
90.0	257.0	163.7024
90.0	258.0	168.395
90.0	259.0	173.4035
90.0	260.0	178.6089
90.0	261.0	183.8807
90.0	262.0	189.083
90.0	263.0	194.0795
90.0	264.0	198.7391
90.0	265.0	202.9414
90.0	266.0	206.581
90.0	267.0	209.572
90.0	268.0	211.8512
90.0	269.0	213.3801
90.0	270.0	214.1462
90.0	271.0	214.1632
90.0	272.0	213.4697
90.0	273.0	212.1273
90.0	274.0	210.2171
90.0	275.0	207.8367
90.0	276.0	205.0945
90.0	277.0	202.106
90.0	278.0	198.9878
90.0	279.0	195.853
90.0	280.0	192.8061
90.0	281.0	189.939
90.0	282.0	187.3271
90.0	283.0	185.0266
90.0	284.0	183.0726
90.0	285.0	181.478
90.0	286.0	180.2341
90.0	287.0	179.3114
90.0	288.0	178.6619
90.0	289.0	178.2222
90.0	290.0	177.9171
90.0	291.0	177.6637
90.0	292.0	177.3761
90.0	293.0	176.9698
90.0	294.0	176.3665
90.0	295.0	175.4978
90.0	296.0	174.3093
90.0	297.0	172.7633
90.0	298.0	170.8407
90.0	299.0	168.5426
90.0	300.0	165.8902
90.0	301.0	162.9241
90.0	302.0	159.7026
90.0	303.0	156.2992
90.0	304.0	152.7991
90.0	305.0	149.2958
90.0	306.0	145.8865
90.0	307.0	142.668
90.0	308.0	139.7326
90.0	309.0	137.1635
90.0	310.0	135.0323
90.0	311.0	133.395
90.0	311.99999999999994	132.2909
90.0	313.0	131.7411
90.0	314.0	131.7483
90.0	315.0	132.2977
90.0	316.0	133.3588
90.0	317.0	134.8882
90.0	318.0	136.8328
90.0	319.0	139.1342
90.0	320.0	141.7325
90.0	321.0	144.5716
90.0	322.0	147.603
90.0	323.0	150.7906
90.0	324.0	154.1139
90.0	325.0	157.5711
90.0	326.0	161.1812
90.0	327.0	164.9845
90.0	328.0	169.0427
90.0	329.0	173.4373
90.0	330.0	178.2668
90.0	331.0	183.6432
90.0	332.0	189.6868
90.0	333.0	196.521
90.0	334.0	204.2653
90.0	335.0	213.0298
90.0	336.0	222.9073
90.0	337.0	233.9676
90.0	338.0	246.2514
90.0	338.99999999999994	259.7645
90.0	340.0	274.4746
90.0	341.0	290.3075
90.0	342.0	307.1462
90.0	343.0	324.8308
90.0	344.0	343.1603
90.0	345.0	361.8961
90.0	346.0	380.7668
90.0	347.0	399.4746
90.0	347.99999999999994	417.703
90.0	349.0	435.1253
90.0	350.0	451.4142
90.0	351.0	466.251
90.0	352.0	479.3361
90.0	353.0	490.3973
90.0	354.0	499.1996
90.0	355.0	505.5523
90.0	356.0	509.3154
90.0	356.99999999999994	510.4049
90.0	358.0	508.7952
90.0	359.0	504.5211
90.0	0.0	337.2402
89.0	0.0	333.9733
88.0	0.0	325.9284
87.00000000000001	0.0	313.3322
86.0	0.0	296.5485
85.0	0.0	276.0649
84.0	0.0	252.4749
83.0	0.0	226.4562
82.0	0.0	198.7452
81.0	0.0	170.1109
80.0	0.0	141.3267
79.0	0.0	113.143
78.00000000000001	0.0	86.2614
77.0	0.0	61.3105
76.0	0.0	38.8261
75.0	0.0	19.2344
74.0	0.0	2.8411
73.0	0.0	-10.1754
72.0	0.0	-19.7646
71.0	0.0	-25.9997
70.0	0.0	-29.0686
69.00000000000001	0.0	-29.2593
68.0	0.0	-26.9426
67.0	0.0	-22.5516
66.0	0.0	-16.558
65.0	0.0	-9.449
64.0	0.0	-1.7028
63.0	0.0	6.2334
62.0	0.0	13.9651
61.0	0.0	21.1671
60.00000000000001	0.0	27.598
59.00000000000001	0.0	33.1098
58.00000000000001	0.0	37.652
57.00000000000001	0.0	41.2723
55.99999999999999	0.0	44.1106
55.00000000000001	0.0	46.3903
54.0	0.0	48.4038
53.00000000000001	0.0	50.4955
52.0	0.0	53.0418
51.00000000000001	0.0	56.4295
50.00000000000001	0.0	61.0331
49.00000000000001	0.0	67.1933
48.0	0.0	75.1958
47.0	0.0	85.2531
46.00000000000001	0.0	97.4893
45.0	0.0	111.9288
44.0	0.0	128.4897
43.0	0.0	146.9815
42.0	0.0	167.1086
41.0	0.0	188.4778
40.00000000000001	0.0	210.6109
39.0	0.0	232.9615
37.99999999999999	0.0	254.9346
37.0	0.0	275.9097
36.0	0.0	295.2642
35.0	0.0	312.3989
34.0	0.0	326.7616
33.0	0.0	337.87
31.99999999999999	0.0	345.3319
31.0	0.0	348.8619
30.000000000000004	0.0	348.2939
29.00000000000001	0.0	343.5889
28.000000000000007	0.0	334.8384
27.00000000000001	0.0	322.261
25.999999999999996	0.0	306.1961
25.000000000000004	0.0	287.0906
24.000000000000004	0.0	265.4828
22.999999999999993	0.0	241.9823
21.999999999999996	0.0	217.2464
21.0	0.0	191.9558
20.00000000000001	0.0	166.789
19.000000000000014	0.0	142.397
18.00000000000001	0.0	119.3791
17.000000000000007	0.0	98.262
15.999999999999995	0.0	79.4811
14.999999999999996	0.0	63.3668
14.0	0.0	50.1341
12.999999999999996	0.0	39.8788
12.000000000000018	0.0	32.5775
10.999999999999993	0.0	28.0933
10.000000000000012	0.0	26.186
8.999999999999984	0.0	26.5271
7.999999999999981	0.0	28.7174
7.000000000000025	0.0	32.3089
6.000000000000026	0.0	36.8269
4.999999999999992	0.0	41.7941
4.000000000000042	0.0	46.754
3.0000000000000444	0.0	51.293
1.9999999999999472	0.0	55.0603
0.9999999999999002	0.0	57.7848
0.0	0.0	59.2875
0.9999999999999002	180.0	59.4906
1.9999999999999472	180.0	58.4203
3.0000000000000444	180.0	56.2059
4.000000000000042	180.0	53.0733
4.999999999999992	180.0	49.334
6.000000000000026	180.0	45.3701
6.9999999999999725	180.0	41.6156
7.999999999999981	180.0	38.5352
8.999999999999984	180.0	36.6018
10.000000000000012	180.0	36.2723
10.999999999999993	180.0	37.9649
11.999999999999988	180.0	42.0371
12.999999999999996	180.0	48.7666
14.0	180.0	58.3347
14.999999999999996	180.0	70.815
15.999999999999995	180.0	86.165
16.99999999999999	180.0	104.2243
17.999999999999986	180.0	124.7165
18.999999999999996	180.0	147.2567
19.999999999999993	180.0	171.3643
21.0	180.0	196.4784
21.999999999999996	180.0	221.9786
23.00000000000001	180.0	247.2071
24.000000000000004	180.0	271.493
24.99999999999999	180.0	294.1778
26.000000000000007	180.0	314.6399
26.999999999999996	180.0	332.3177
28.000000000000007	180.0	346.7312
28.999999999999996	180.0	357.4992
29.999999999999993	180.0	364.3534
31.0	180.0	367.1476
31.99999999999999	180.0	365.8619
33.0	180.0	360.6021
34.0	180.0	351.5939
35.000000000000014	180.0	339.1722
36.0	180.0	323.767
37.000000000000014	180.0	305.8841
37.99999999999999	180.0	286.0848
38.99999999999999	180.0	264.9626
40.00000000000001	180.0	243.1195
40.999999999999986	180.0	221.142
42.0	180.0	199.5794
43.0	180.0	178.9229
44.00000000000001	180.0	159.5888
45.0	180.0	141.9049
46.000000000000014	180.0	126.1011
47.0	180.0	112.3054
47.999999999999986	180.0	100.5436
49.00000000000001	180.0	90.7447
49.99999999999999	180.0	82.7501
51.00000000000001	180.0	76.327
51.99999999999999	180.0	71.1849
53.000000000000014	180.0	66.9951
53.99999999999999	180.0	63.4109
55.000000000000014	180.0	60.0894
55.99999999999999	180.0	56.7119
56.999999999999986	180.0	53.0033
58.00000000000001	180.0	48.7495
58.99999999999999	180.0	43.811
60.00000000000001	180.0	38.133
61.0	180.0	31.7512
62.000000000000014	180.0	24.7923
63.0	180.0	17.471
64.00000000000001	180.0	10.0814
65.0	180.0	2.984
65.99999999999999	180.0	-3.4101
67.0	180.0	-8.6591
68.0	180.0	-12.3114
69.00000000000001	180.0	-13.9293
70.0	180.0	-13.111
71.00000000000001	180.0	-9.5133
72.0	180.0	-2.8719
73.00000000000001	180.0	6.9821
74.0	180.0	20.1072
74.99999999999999	180.0	36.4434
76.0	180.0	55.807
77.0	180.0	77.8914
78.00000000000001	180.0	102.2732
79.0	180.0	128.4228
80.00000000000001	180.0	155.7205
81.0	180.0	183.4761
82.00000000000001	180.0	210.9518
83.0	180.0	237.3882
83.99999999999999	180.0	262.031
85.0	180.0	284.1584
86.0	180.0	303.108
87.00000000000001	180.0	318.301
88.0	180.0	329.2642
89.00000000000001	180.0	335.6481
90.0	180.0	337.2402
91.00000000000001	180.0	333.9733
92.0	180.0	325.9284
92.99999999999999	180.0	313.3322
94.0	180.0	296.5485
95.0	180.0	276.0649
96.00000000000001	180.0	252.4749
97.0	180.0	226.4562
98.00000000000001	180.0	198.7452
99.0	180.0	170.1109
100.00000000000001	180.0	141.3267
101.0	180.0	113.143
102.00000000000001	180.0	86.2614
103.0	180.0	61.3105
104.0	180.0	38.8261
105.00000000000001	180.0	19.2344
106.0	180.0	2.8411
107.00000000000001	180.0	-10.1754
108.0	180.0	-19.7646
109.00000000000001	180.0	-25.9997
110.0	180.0	-29.0686
111.00000000000001	180.0	-29.2593
112.0	180.0	-26.9426
113.0	180.0	-22.5516
114.00000000000001	180.0	-16.558
115.0	180.0	-9.449
116.00000000000001	180.0	-1.7028
117.0	180.0	6.2334
118.00000000000001	180.0	13.9651
119.0	180.0	21.1671
120.00000000000001	180.0	27.598
121.0	180.0	33.1098
122.0	180.0	37.652
123.00000000000001	180.0	41.2723
124.0	180.0	44.1106
125.00000000000001	180.0	46.3903
126.0	180.0	48.4038
127.00000000000001	180.0	50.4955
128.0	180.0	53.0418
129.00000000000003	180.0	56.4295
130.0	180.0	61.0331
131.0	180.0	67.1933
132.0	180.0	75.1958
133.0	180.0	85.2531
134.0	180.0	97.4893
135.0	180.0	111.9288
136.0	180.0	128.4897
137.0	180.0	146.9815
138.00000000000003	180.0	167.1086
139.0	180.0	188.4778
140.0	180.0	210.6109
140.99999999999997	180.0	232.9615
142.00000000000003	180.0	254.9346
143.0	180.0	275.9097
144.0	180.0	295.2642
145.0	180.0	312.3989
146.00000000000003	180.0	326.7616
147.00000000000003	180.0	337.87
148.0	180.0	345.3319
149.0	180.0	348.8619
149.99999999999997	180.0	348.2939
151.00000000000003	180.0	343.5889
152.0	180.0	334.8384
153.0	180.0	322.261
154.0	180.0	306.1961
155.00000000000003	180.0	287.0906
156.00000000000003	180.0	265.4828
157.0	180.0	241.9823
158.0	180.0	217.2464
158.99999999999997	180.0	191.9558
160.00000000000003	180.0	166.789
161.0	180.0	142.397
162.0	180.0	119.3791
163.0	180.0	98.262
164.00000000000003	180.0	79.4811
165.00000000000003	180.0	63.3668
166.0	180.0	50.1341
167.0	180.0	39.8788
167.99999999999997	180.0	32.5775
169.00000000000003	180.0	28.0933
169.99999999999997	180.0	26.186
170.99999999999997	180.0	26.5271
172.0	180.0	28.7174
173.00000000000003	180.0	32.3089
174.00000000000003	180.0	36.8269
175.0	180.0	41.7941
175.99999999999997	180.0	46.754
176.99999999999994	180.0	51.293
178.00000000000006	180.0	55.0603
179.0000000000001	180.0	57.7848
180.0	180.0	59.2875
179.0000000000001	0.0	59.4906
178.00000000000006	0.0	58.4203
176.99999999999994	0.0	56.2059
176.00000000000006	0.0	53.0733
175.0	0.0	49.334
174.00000000000003	0.0	45.3701
172.99999999999997	0.0	41.6156
172.0	0.0	38.5352
171.00000000000003	0.0	36.6018
170.00000000000003	0.0	36.2723
168.99999999999997	0.0	37.9649
167.99999999999997	0.0	42.0371
167.00000000000003	0.0	48.7666
166.00000000000003	0.0	58.3347
165.00000000000003	0.0	70.815
163.99999999999997	0.0	86.165
163.0	0.0	104.2243
162.00000000000003	0.0	124.7165
161.00000000000003	0.0	147.2567
160.0	0.0	171.3643
159.0	0.0	196.4784
158.00000000000003	0.0	221.9786
157.00000000000003	0.0	247.2071
156.00000000000003	0.0	271.493
154.99999999999997	0.0	294.1778
154.0	0.0	314.6399
153.00000000000003	0.0	332.3177
152.0	0.0	346.7312
150.99999999999997	0.0	357.4992
150.0	0.0	364.3534
149.0	0.0	367.1476
148.0	0.0	365.8619
147.00000000000003	0.0	360.6021
146.0	0.0	351.5939
145.0	0.0	339.1722
144.00000000000003	0.0	323.767
143.0	0.0	305.8841
142.0	0.0	286.0848
140.99999999999997	0.0	264.9626
140.00000000000003	0.0	243.1195
139.00000000000003	0.0	221.142
138.00000000000003	0.0	199.5794
137.0	0.0	178.9229
136.0	0.0	159.5888
135.00000000000003	0.0	141.9049
134.00000000000003	0.0	126.1011
132.99999999999997	0.0	112.3054
131.99999999999997	0.0	100.5436
131.00000000000003	0.0	90.7447
130.00000000000003	0.0	82.7501
129.00000000000003	0.0	76.327
128.0	0.0	71.1849
126.99999999999999	0.0	66.9951
126.00000000000003	0.0	63.4109
125.00000000000004	0.0	60.0894
123.99999999999997	0.0	56.7119
122.99999999999999	0.0	53.0033
122.0	0.0	48.7495
121.0	0.0	43.811
120.00000000000001	0.0	38.133
119.0	0.0	31.7512
118.00000000000001	0.0	24.7923
117.00000000000003	0.0	17.471
116.00000000000004	0.0	10.0814
115.0	0.0	2.984
114.00000000000001	0.0	-3.4101
113.00000000000001	0.0	-8.6591
112.00000000000003	0.0	-12.3114
111.00000000000004	0.0	-13.9293
110.0	0.0	-13.111
109.00000000000001	0.0	-9.5133
108.00000000000003	0.0	-2.8719
107.00000000000004	0.0	6.9821
106.0	0.0	20.1072
105.0	0.0	36.4434
104.00000000000001	0.0	55.807
103.00000000000001	0.0	77.8914
102.00000000000003	0.0	102.2732
100.99999999999999	0.0	128.4228
100.0	0.0	155.7205
99.00000000000001	0.0	183.4761
98.00000000000003	0.0	210.9518
96.99999999999999	0.0	237.3882
96.0	0.0	262.031
95.0	0.0	284.1584
94.00000000000001	0.0	303.108
93.00000000000003	0.0	318.301
91.99999999999999	0.0	329.2642
91.0	0.0	335.6481
90.0	90.0	186.7972
89.0	90.0	185.6847
88.0	90.0	183.6951
87.00000000000001	90.0	180.8783
86.0	90.0	177.3031
85.0	90.0	173.0559
84.0	90.0	168.2376
83.0	90.0	162.961
82.0	90.0	157.3471
81.0	90.0	151.522
80.0	90.0	145.6132
79.0	90.0	139.7456
78.00000000000001	90.0	134.0389
77.0	90.0	128.6038
76.0	90.0	123.5395
75.0	90.0	118.9311
74.0	90.0	114.8481
73.0	90.0	111.3429
72.0	90.0	108.4501
71.0	90.0	106.1863
70.0	90.0	104.5507
69.00000000000001	90.0	103.5259
68.0	90.0	103.0794
67.0	90.0	103.1657
66.0	90.0	103.7278
65.0	90.0	104.7004
64.0	90.0	106.0119
63.0	90.0	107.5871
62.0	90.0	109.3501
61.0	90.0	111.2257
60.00000000000001	90.0	113.1428
59.00000000000001	90.0	115.0349
58.00000000000001	90.0	116.8429
57.00000000000001	90.0	118.5151
55.99999999999999	90.0	120.0086
55.00000000000001	90.0	121.2893
54.0	90.0	122.3318
53.00000000000001	90.0	123.1192
52.0	90.0	123.6421
51.00000000000001	90.0	123.8976
50.00000000000001	90.0	123.8887
49.00000000000001	90.0	123.622
48.0	90.0	123.1074
47.0	90.0	122.3562
46.00000000000001	90.0	121.38
45.0	90.0	120.1901
44.0	90.0	118.7961
43.0	90.0	117.2056
42.0	90.0	115.424
41.0	90.0	113.4542
40.00000000000001	90.0	111.297
39.0	90.0	108.9515
37.99999999999999	90.0	106.4158
37.0	90.0	103.6877
36.0	90.0	100.766
35.0	90.0	97.651
34.0	90.0	94.3457
33.0	90.0	90.857
31.99999999999999	90.0	87.1961
31.0	90.0	83.3791
30.000000000000004	90.0	79.4277
29.00000000000001	90.0	75.369
28.000000000000007	90.0	71.2357
27.00000000000001	90.0	67.0652
25.999999999999996	90.0	62.8994
25.000000000000004	90.0	58.7833
24.000000000000004	90.0	54.7641
22.999999999999993	90.0	50.8897
21.999999999999996	90.0	47.2075
21.0	90.0	43.7623
20.00000000000001	90.0	40.5953
19.000000000000014	90.0	37.7425
18.00000000000001	90.0	35.2334
17.000000000000007	90.0	33.0895
15.999999999999995	90.0	31.3242
14.999999999999996	90.0	29.9415
14.0	90.0	28.9362
12.999999999999996	90.0	28.2938
12.000000000000018	90.0	27.9909
10.999999999999993	90.0	27.9964
10.000000000000012	90.0	28.2719
8.999999999999984	90.0	28.7737
7.999999999999981	90.0	29.4541
7.000000000000025	90.0	30.263
6.000000000000026	90.0	31.1501
4.999999999999992	90.0	32.0665
4.000000000000042	90.0	32.9666
3.0000000000000444	90.0	33.8098
1.9999999999999472	90.0	34.5618
0.9999999999999002	90.0	35.1963
0.0	90.0	35.6956
0.9999999999999002	270.0	36.051
1.9999999999999472	270.0	36.2637
3.0000000000000444	270.0	36.3444
4.000000000000042	270.0	36.3125
4.999999999999992	270.0	36.1959
6.000000000000026	270.0	36.0294
6.9999999999999725	270.0	35.8538
7.999999999999981	270.0	35.7138
8.999999999999984	270.0	35.6568
10.000000000000012	270.0	35.7307
10.999999999999993	270.0	35.9826
11.999999999999988	270.0	36.4565
12.999999999999996	270.0	37.1921
14.0	270.0	38.2234
14.999999999999996	270.0	39.5772
15.999999999999995	270.0	41.2728
16.99999999999999	270.0	43.3207
17.999999999999986	270.0	45.7229
18.999999999999996	270.0	48.4726
19.999999999999993	270.0	51.5547
21.0	270.0	54.9464
21.999999999999996	270.0	58.618
23.00000000000001	270.0	62.5339
24.000000000000004	270.0	66.6541
24.99999999999999	270.0	70.935
26.000000000000007	270.0	75.331
26.999999999999996	270.0	79.7958
28.000000000000007	270.0	84.2833
28.999999999999996	270.0	88.7492
29.999999999999993	270.0	93.1512
31.0	270.0	97.4504
31.99999999999999	270.0	101.6116
33.0	270.0	105.6031
34.0	270.0	109.3976
35.000000000000014	270.0	112.9716
36.0	270.0	116.3053
37.000000000000014	270.0	119.3821
37.99999999999999	270.0	122.1884
38.99999999999999	270.0	124.7126
40.00000000000001	270.0	126.9452
40.999999999999986	270.0	128.878
42.0	270.0	130.5038
43.0	270.0	131.8161
44.00000000000001	270.0	132.8092
45.0	270.0	133.4782
46.000000000000014	270.0	133.8192
47.0	270.0	133.8299
47.999999999999986	270.0	133.51
49.00000000000001	270.0	132.8623
49.99999999999999	270.0	131.893
51.00000000000001	270.0	130.6129
51.99999999999999	270.0	129.0381
53.000000000000014	270.0	127.191
53.99999999999999	270.0	125.1006
55.000000000000014	270.0	122.8031
55.99999999999999	270.0	120.3424
56.999999999999986	270.0	117.7694
58.00000000000001	270.0	115.1426
58.99999999999999	270.0	112.5263
60.00000000000001	270.0	109.9906
61.0	270.0	107.6093
62.000000000000014	270.0	105.4586
63.0	270.0	103.6152
64.00000000000001	270.0	102.154
65.0	270.0	101.146
65.99999999999999	270.0	100.6556
67.0	270.0	100.7389
68.0	270.0	101.4408
69.00000000000001	270.0	102.7933
70.0	270.0	104.8139
71.00000000000001	270.0	107.5038
72.0	270.0	110.8472
73.00000000000001	270.0	114.8106
74.0	270.0	119.3431
74.99999999999999	270.0	124.3769
76.0	270.0	129.8283
77.0	270.0	135.5995
78.00000000000001	270.0	141.5808
79.0	270.0	147.653
80.00000000000001	270.0	153.6908
81.0	270.0	159.5659
82.00000000000001	270.0	165.15
83.0	270.0	170.3192
83.99999999999999	270.0	174.9569
85.0	270.0	178.9571
86.0	270.0	182.2279
87.00000000000001	270.0	184.6938
88.0	270.0	186.2979
89.00000000000001	270.0	187.004
90.0	270.0	186.7972
91.00000000000001	270.0	185.6847
92.0	270.0	183.6951
92.99999999999999	270.0	180.8783
94.0	270.0	177.3031
95.0	270.0	173.0559
96.00000000000001	270.0	168.2376
97.0	270.0	162.961
98.00000000000001	270.0	157.3471
99.0	270.0	151.522
100.00000000000001	270.0	145.6132
101.0	270.0	139.7456
102.00000000000001	270.0	134.0389
103.0	270.0	128.6038
104.0	270.0	123.5395
105.00000000000001	270.0	118.9311
106.0	270.0	114.8481
107.00000000000001	270.0	111.3429
108.0	270.0	108.4501
109.00000000000001	270.0	106.1863
110.0	270.0	104.5507
111.00000000000001	270.0	103.5259
112.0	270.0	103.0794
113.0	270.0	103.1657
114.00000000000001	270.0	103.7278
115.0	270.0	104.7004
116.00000000000001	270.0	106.0119
117.0	270.0	107.5871
118.00000000000001	270.0	109.3501
119.0	270.0	111.2257
120.00000000000001	270.0	113.1428
121.0	270.0	115.0349
122.0	270.0	116.8429
123.00000000000001	270.0	118.5151
124.0	270.0	120.0086
125.00000000000001	270.0	121.2893
126.0	270.0	122.3318
127.00000000000001	270.0	123.1192
128.0	270.0	123.6421
129.00000000000003	270.0	123.8976
130.0	270.0	123.8887
131.0	270.0	123.622
132.0	270.0	123.1074
133.0	270.0	122.3562
134.0	270.0	121.38
135.0	270.0	120.1901
136.0	270.0	118.7961
137.0	270.0	117.2056
138.00000000000003	270.0	115.424
139.0	270.0	113.4542
140.0	270.0	111.297
140.99999999999997	270.0	108.9515
142.00000000000003	270.0	106.4158
143.0	270.0	103.6877
144.0	270.0	100.766
145.0	270.0	97.651
146.00000000000003	270.0	94.3457
147.00000000000003	270.0	90.857
148.0	270.0	87.1961
149.0	270.0	83.3791
149.99999999999997	270.0	79.4277
151.00000000000003	270.0	75.369
152.0	270.0	71.2357
153.0	270.0	67.0652
154.0	270.0	62.8994
155.00000000000003	270.0	58.7833
156.00000000000003	270.0	54.7641
157.0	270.0	50.8897
158.0	270.0	47.2075
158.99999999999997	270.0	43.7623
160.00000000000003	270.0	40.5953
161.0	270.0	37.7425
162.0	270.0	35.2334
163.0	270.0	33.0895
164.00000000000003	270.0	31.3242
165.00000000000003	270.0	29.9415
166.0	270.0	28.9362
167.0	270.0	28.2938
167.99999999999997	270.0	27.9909
169.00000000000003	270.0	27.9964
169.99999999999997	270.0	28.2719
170.99999999999997	270.0	28.7737
172.0	270.0	29.4541
173.00000000000003	270.0	30.263
174.00000000000003	270.0	31.1501
175.0	270.0	32.0665
175.99999999999997	270.0	32.9666
176.99999999999994	270.0	33.8098
178.00000000000006	270.0	34.5618
179.0000000000001	270.0	35.1963
180.0	270.0	35.6956
179.0000000000001	90.0	36.051
178.00000000000006	90.0	36.2637
176.99999999999994	90.0	36.3444
176.00000000000006	90.0	36.3125
175.0	90.0	36.1959
174.00000000000003	90.0	36.0294
172.99999999999997	90.0	35.8538
172.0	90.0	35.7138
171.00000000000003	90.0	35.6568
170.00000000000003	90.0	35.7307
168.99999999999997	90.0	35.9826
167.99999999999997	90.0	36.4565
167.00000000000003	90.0	37.1921
166.00000000000003	90.0	38.2234
165.00000000000003	90.0	39.5772
163.99999999999997	90.0	41.2728
163.0	90.0	43.3207
162.00000000000003	90.0	45.7229
161.00000000000003	90.0	48.4726
160.0	90.0	51.5547
159.0	90.0	54.9464
158.00000000000003	90.0	58.618
157.00000000000003	90.0	62.5339
156.00000000000003	90.0	66.6541
154.99999999999997	90.0	70.935
154.0	90.0	75.331
153.00000000000003	90.0	79.7958
152.0	90.0	84.2833
150.99999999999997	90.0	88.7492
150.0	90.0	93.1512
149.0	90.0	97.4504
148.0	90.0	101.6116
147.00000000000003	90.0	105.6031
146.0	90.0	109.3976
145.0	90.0	112.9716
144.00000000000003	90.0	116.3053
143.0	90.0	119.3821
142.0	90.0	122.1884
140.99999999999997	90.0	124.7126
140.00000000000003	90.0	126.9452
139.00000000000003	90.0	128.878
138.00000000000003	90.0	130.5038
137.0	90.0	131.8161
136.0	90.0	132.8092
135.00000000000003	90.0	133.4782
134.00000000000003	90.0	133.8192
132.99999999999997	90.0	133.8299
131.99999999999997	90.0	133.51
131.00000000000003	90.0	132.8623
130.00000000000003	90.0	131.893
129.00000000000003	90.0	130.6129
128.0	90.0	129.0381
126.99999999999999	90.0	127.191
126.00000000000003	90.0	125.1006
125.00000000000004	90.0	122.8031
123.99999999999997	90.0	120.3424
122.99999999999999	90.0	117.7694
122.0	90.0	115.1426
121.0	90.0	112.5263
120.00000000000001	90.0	109.9906
119.0	90.0	107.6093
118.00000000000001	90.0	105.4586
117.00000000000003	90.0	103.6152
116.00000000000004	90.0	102.154
115.0	90.0	101.146
114.00000000000001	90.0	100.6556
113.00000000000001	90.0	100.7389
112.00000000000003	90.0	101.4408
111.00000000000004	90.0	102.7933
110.0	90.0	104.8139
109.00000000000001	90.0	107.5038
108.00000000000003	90.0	110.8472
107.00000000000004	90.0	114.8106
106.0	90.0	119.3431
105.0	90.0	124.3769
104.00000000000001	90.0	129.8283
103.00000000000001	90.0	135.5995
102.00000000000003	90.0	141.5808
100.99999999999999	90.0	147.653
100.0	90.0	153.6908
99.00000000000001	90.0	159.5659
98.00000000000003	90.0	165.15
96.99999999999999	90.0	170.3192
96.0	90.0	174.9569
95.0	90.0	178.9571
94.00000000000001	90.0	182.2279
93.00000000000003	90.0	184.6938
91.99999999999999	90.0	186.2979
91.0	90.0	187.004
