Polar Angle 	 Azimuth Angle 	 Intensity 
90.0	45.0	801.6803
89.0	45.0	800.3844
88.0	45.0	803.2621
87.00000000000001	45.0	810.1827
86.0	45.0	820.8828
85.0	45.0	834.9779
84.0	45.0	851.9796
83.0	45.0	871.3171
82.0	45.0	892.3621
81.0	45.0	914.4556
80.0	45.0	936.9363
79.0	45.0	959.168
78.00000000000001	45.0	980.5657
77.0	45.0	1000.6186
76.0	45.0	1018.9099
75.0	45.0	1035.1309
74.0	45.0	1049.0907
73.0	45.0	1060.7194
72.0	45.0	1070.0661
71.0	45.0	1077.2908
70.0	45.0	1082.6509
69.00000000000001	45.0	1086.4839
68.0	45.0	1089.1859
67.0	45.0	1091.1877
66.0	45.0	1092.9295
65.0	45.0	1094.8359
64.0	45.0	1097.292
63.0	45.0	1100.6216
62.0	45.0	1105.0699
61.0	45.0	1110.7894
60.00000000000001	45.0	1117.8325
59.00000000000001	45.0	1126.1489
58.00000000000001	45.0	1135.5891
57.00000000000001	45.0	1145.914
55.99999999999999	45.0	1156.8097
55.00000000000001	45.0	1167.9069
54.0	45.0	1178.8046
53.00000000000001	45.0	1189.0966
52.0	45.0	1198.3986
51.00000000000001	45.0	1206.3763
50.00000000000001	45.0	1212.7719
49.00000000000001	45.0	1217.4274
48.0	45.0	1220.305
47.0	45.0	1221.5009
46.00000000000001	45.0	1221.254
45.0	45.0	1219.9479
44.0	45.0	1218.105
43.0	45.0	1216.3743
42.0	45.0	1215.5118
41.0	45.0	1216.3551
40.00000000000001	45.0	1219.792
39.0	45.0	1226.7255
37.99999999999999	45.0	1238.036
37.0	45.0	1254.5422
36.0	45.0	1276.9622
35.0	45.0	1305.8777
34.0	45.0	1341.7009
33.0	45.0	1384.648
31.99999999999999	45.0	1434.7182
31.0	45.0	1491.6817
30.000000000000004	45.0	1555.0756
29.00000000000001	45.0	1624.2093
28.000000000000007	45.0	1698.1785
27.00000000000001	45.0	1775.8887
25.999999999999996	45.0	1856.0865
25.000000000000004	45.0	1937.398
24.000000000000004	45.0	2018.3729
22.999999999999993	45.0	2097.5333
21.999999999999996	45.0	2173.4236
21.0	45.0	2244.6621
20.00000000000001	45.0	2309.9899
19.000000000000014	45.0	2368.3165
18.00000000000001	45.0	2418.7602
17.000000000000007	45.0	2460.6802
15.999999999999995	45.0	2493.7015
14.999999999999996	45.0	2517.7289
14.0	45.0	2532.9512
12.999999999999996	45.0	2539.8345
12.000000000000018	45.0	2539.1045
10.999999999999993	45.0	2531.7199
10.000000000000012	45.0	2518.8349
8.999999999999984	45.0	2501.7557
7.999999999999981	45.0	2481.8896
7.000000000000025	45.0	2460.6906
6.000000000000026	45.0	2439.6028
4.999999999999992	45.0	2420.0036
4.000000000000042	45.0	2403.1492
3.0000000000000444	45.0	2390.1253
1.9999999999999472	45.0	2381.8031
0.9999999999999002	45.0	2378.8043
0.0	45.0	2381.4754
0.9999999999999002	225.0	2389.8725
1.9999999999999472	225.0	2403.7576
3.0000000000000444	225.0	2422.6061
4.000000000000042	225.0	2445.6257
4.999999999999992	225.0	2471.7859
6.000000000000026	225.0	2499.8562
6.9999999999999725	225.0	2528.4531
7.999999999999981	225.0	2556.0925
8.999999999999984	225.0	2581.2467
10.000000000000012	225.0	2602.4025
10.999999999999993	225.0	2618.1198
11.999999999999988	225.0	2627.087
12.999999999999996	225.0	2628.1716
14.0	225.0	2620.464
14.999999999999996	225.0	2603.3137
15.999999999999995	225.0	2576.3548
16.99999999999999	225.0	2539.5211
17.999999999999986	225.0	2493.0503
18.999999999999996	225.0	2437.4769
19.999999999999993	225.0	2373.6135
21.0	225.0	2302.5231
21.999999999999996	225.0	2225.4815
23.00000000000001	225.0	2143.9328
24.000000000000004	225.0	2059.439
24.99999999999999	225.0	1973.6262
26.000000000000007	225.0	1888.129
26.999999999999996	225.0	1804.5355
28.000000000000007	225.0	1724.3355
28.999999999999996	225.0	1648.8727
29.999999999999993	225.0	1579.3036
31.0	225.0	1516.5645
31.99999999999999	225.0	1461.3467
33.0	225.0	1414.0823
34.0	225.0	1374.9396
35.000000000000014	225.0	1343.8283
36.0	225.0	1320.4146
37.000000000000014	225.0	1304.1449
37.99999999999999	225.0	1294.2766
38.99999999999999	225.0	1289.9155
40.00000000000001	225.0	1290.057
40.999999999999986	225.0	1293.6305
42.0	225.0	1299.5439
43.0	225.0	1306.7269
44.00000000000001	225.0	1314.1724
45.0	225.0	1320.972
46.000000000000014	225.0	1326.3466
47.0	225.0	1329.6696
47.999999999999986	225.0	1330.4828
49.00000000000001	225.0	1328.5039
49.99999999999999	225.0	1323.626
51.00000000000001	225.0	1315.9094
51.99999999999999	225.0	1305.5659
53.000000000000014	225.0	1292.9375
53.99999999999999	225.0	1278.4696
55.000000000000014	225.0	1262.6807
55.99999999999999	225.0	1246.13
56.999999999999986	225.0	1229.3843
58.00000000000001	225.0	1212.9867
58.99999999999999	225.0	1197.4264
60.00000000000001	225.0	1183.1136
61.0	225.0	1170.3588
62.000000000000014	225.0	1159.3578
63.0	225.0	1150.1832
64.00000000000001	225.0	1142.7829
65.0	225.0	1136.9846
65.99999999999999	225.0	1132.507
67.0	225.0	1128.9765
68.0	225.0	1125.9485
69.00000000000001	225.0	1122.9327
70.0	225.0	1119.42
71.00000000000001	225.0	1114.9112
72.0	225.0	1108.945
73.00000000000001	225.0	1101.1238
74.0	225.0	1091.1369
74.99999999999999	225.0	1078.7797
76.0	225.0	1063.9676
77.0	225.0	1046.7437
78.00000000000001	225.0	1027.2816
79.0	225.0	1005.8805
80.00000000000001	225.0	982.9555
81.0	225.0	959.0218
82.00000000000001	225.0	934.6739
83.0	225.0	910.5616
83.99999999999999	225.0	887.3623
85.0	225.0	865.7526
86.0	225.0	846.3795
87.00000000000001	225.0	829.8326
88.0	225.0	816.619
89.00000000000001	225.0	807.1411
90.0	225.0	801.6803
91.00000000000001	225.0	800.3844
92.0	225.0	803.2621
92.99999999999999	225.0	810.1827
94.0	225.0	820.8828
95.0	225.0	834.9779
96.00000000000001	225.0	851.9796
97.0	225.0	871.3171
98.00000000000001	225.0	892.3621
99.0	225.0	914.4556
100.00000000000001	225.0	936.9363
101.0	225.0	959.168
102.00000000000001	225.0	980.5657
103.0	225.0	1000.6186
104.0	225.0	1018.9099
105.00000000000001	225.0	1035.1309
106.0	225.0	1049.0907
107.00000000000001	225.0	1060.7194
108.0	225.0	1070.0661
109.00000000000001	225.0	1077.2908
110.0	225.0	1082.6509
111.00000000000001	225.0	1086.4839
112.0	225.0	1089.1859
113.0	225.0	1091.1877
114.00000000000001	225.0	1092.9295
115.0	225.0	1094.8359
116.00000000000001	225.0	1097.292
117.0	225.0	1100.6216
118.00000000000001	225.0	1105.0699
119.0	225.0	1110.7894
120.00000000000001	225.0	1117.8325
121.0	225.0	1126.1489
122.0	225.0	1135.5891
123.00000000000001	225.0	1145.914
124.0	225.0	1156.8097
125.00000000000001	225.0	1167.9069
126.0	225.0	1178.8046
127.00000000000001	225.0	1189.0966
128.0	225.0	1198.3986
129.00000000000003	225.0	1206.3763
130.0	225.0	1212.7719
131.0	225.0	1217.4274
132.0	225.0	1220.305
133.0	225.0	1221.5009
134.0	225.0	1221.254
135.0	225.0	1219.9479
136.0	225.0	1218.105
137.0	225.0	1216.3743
138.00000000000003	225.0	1215.5118
139.0	225.0	1216.3551
140.0	225.0	1219.792
140.99999999999997	225.0	1226.7255
142.00000000000003	225.0	1238.036
143.0	225.0	1254.5422
144.0	225.0	1276.9622
145.0	225.0	1305.8777
146.00000000000003	225.0	1341.7009
147.00000000000003	225.0	1384.648
148.0	225.0	1434.7182
149.0	225.0	1491.6817
149.99999999999997	225.0	1555.0756
151.00000000000003	225.0	1624.2093
152.0	225.0	1698.1785
153.0	225.0	1775.8887
154.0	225.0	1856.0865
155.00000000000003	225.0	1937.398
156.00000000000003	225.0	2018.3729
157.0	225.0	2097.5333
158.0	225.0	2173.4236
158.99999999999997	225.0	2244.6621
160.00000000000003	225.0	2309.9899
161.0	225.0	2368.3165
162.0	225.0	2418.7602
163.0	225.0	2460.6802
164.00000000000003	225.0	2493.7015
165.00000000000003	225.0	2517.7289
166.0	225.0	2532.9512
167.0	225.0	2539.8345
167.99999999999997	225.0	2539.1045
169.00000000000003	225.0	2531.7199
169.99999999999997	225.0	2518.8349
170.99999999999997	225.0	2501.7557
172.0	225.0	2481.8896
173.00000000000003	225.0	2460.6906
174.00000000000003	225.0	2439.6028
175.0	225.0	2420.0036
175.99999999999997	225.0	2403.1492
176.99999999999994	225.0	2390.1253
178.00000000000006	225.0	2381.8031
179.0000000000001	225.0	2378.8043
180.0	225.0	2381.4754
179.0000000000001	45.0	2389.8725
178.00000000000006	45.0	2403.7576
176.99999999999994	45.0	2422.6061
176.00000000000006	45.0	2445.6257
175.0	45.0	2471.7859
174.00000000000003	45.0	2499.8562
172.99999999999997	45.0	2528.4531
172.0	45.0	2556.0925
171.00000000000003	45.0	2581.2467
170.00000000000003	45.0	2602.4025
168.99999999999997	45.0	2618.1198
167.99999999999997	45.0	2627.087
167.00000000000003	45.0	2628.1716
166.00000000000003	45.0	2620.464
165.00000000000003	45.0	2603.3137
163.99999999999997	45.0	2576.3548
163.0	45.0	2539.5211
162.00000000000003	45.0	2493.0503
161.00000000000003	45.0	2437.4769
160.0	45.0	2373.6135
159.0	45.0	2302.5231
158.00000000000003	45.0	2225.4815
157.00000000000003	45.0	2143.9328
156.00000000000003	45.0	2059.439
154.99999999999997	45.0	1973.6262
154.0	45.0	1888.129
153.00000000000003	45.0	1804.5355
152.0	45.0	1724.3355
150.99999999999997	45.0	1648.8727
150.0	45.0	1579.3036
149.0	45.0	1516.5645
148.0	45.0	1461.3467
147.00000000000003	45.0	1414.0823
146.0	45.0	1374.9396
145.0	45.0	1343.8283
144.00000000000003	45.0	1320.4146
143.0	45.0	1304.1449
142.0	45.0	1294.2766
140.99999999999997	45.0	1289.9155
140.00000000000003	45.0	1290.057
139.00000000000003	45.0	1293.6305
138.00000000000003	45.0	1299.5439
137.0	45.0	1306.7269
136.0	45.0	1314.1724
135.00000000000003	45.0	1320.972
134.00000000000003	45.0	1326.3466
132.99999999999997	45.0	1329.6696
131.99999999999997	45.0	1330.4828
131.00000000000003	45.0	1328.5039
130.00000000000003	45.0	1323.626
129.00000000000003	45.0	1315.9094
128.0	45.0	1305.5659
126.99999999999999	45.0	1292.9375
126.00000000000003	45.0	1278.4696
125.00000000000004	45.0	1262.6807
123.99999999999997	45.0	1246.13
122.99999999999999	45.0	1229.3843
122.0	45.0	1212.9867
121.0	45.0	1197.4264
120.00000000000001	45.0	1183.1136
119.0	45.0	1170.3588
118.00000000000001	45.0	1159.3578
117.00000000000003	45.0	1150.1832
116.00000000000004	45.0	1142.7829
115.0	45.0	1136.9846
114.00000000000001	45.0	1132.507
113.00000000000001	45.0	1128.9765
112.00000000000003	45.0	1125.9485
111.00000000000004	45.0	1122.9327
110.0	45.0	1119.42
109.00000000000001	45.0	1114.9112
108.00000000000003	45.0	1108.945
107.00000000000004	45.0	1101.1238
106.0	45.0	1091.1369
105.0	45.0	1078.7797
104.00000000000001	45.0	1063.9676
103.00000000000001	45.0	1046.7437
102.00000000000003	45.0	1027.2816
100.99999999999999	45.0	1005.8805
100.0	45.0	982.9555
99.00000000000001	45.0	959.0218
98.00000000000003	45.0	934.6739
96.99999999999999	45.0	910.5616
96.0	45.0	887.3623
95.0	45.0	865.7526
94.00000000000001	45.0	846.3795
93.00000000000003	45.0	829.8326
91.99999999999999	45.0	816.619
91.0	45.0	807.1411
90.0	0.0	730.5517
89.29291116952395	0.7071426817872533	730.5813
88.58593006627854	1.4145007934175506	740.8503
87.87916453235917	2.122289895867879	761.0299
87.1727226397129	2.8307258121018455	790.5543
86.4667128053692	3.540024757356371	828.6394
85.76124390703504	4.250403468570711	874.3076
85.05642539917308	4.962079332655645	926.4187
84.3523674296794	5.675270513286652	983.7053
83.64918095727445	6.390196075887154	1044.8117
82.94697786971682	7.107076110446535	1108.3342
82.24587110294536	7.826131851792348	1172.8634
81.54597476125012	8.547585796906942	1237.0235
80.84740423856572	9.271661818845425	1299.5116
80.15027634097487	9.998585276774412	1359.1315
79.45470941050044	10.728583121609057	1414.8244
78.76082345025607	11.461883996679509	1465.6934
78.0687402510143	12.198718332806749	1511.0213
77.37858351923944	12.939318437111838	1550.2831
76.69047900661849	13.683918574821595	1583.15
76.00455464110858	14.432755043267381	1609.488
75.32094065950206	15.186066237202516	1629.3491
74.63976974149092	15.944092704486447	1642.9569
73.96117714519126	16.707077191101824	1650.6874
73.28530084406378	17.47526467438212	1653.0449
72.61228166514054	18.2489023832344	1650.6352
71.94226342843773	19.028239804042187	1644.1369
71.27539308740191	19.813528670829413	1634.2715
70.61182087020094	20.605022938156644	1621.7741
69.95170042163069	21.402978735106455	1607.3654
69.29518894536457	22.207654298596484	1591.7263
68.64244734622547	23.019309884136224	1575.476
67.99364037210603	23.838207652018653	1559.1537
67.34893675510656	24.664611526811417	1543.2055
66.70850935139694	25.498787027884514	1527.9752
66.07253527924108	26.34100106858589	1513.7014
65.44119605454999	27.191521721553002	1500.5181
64.81467772324949	28.05061794753063	1488.4607
64.19317098966519	28.918559284955432	1477.4754
63.57687134003648	29.79561549746857	1467.4326
62.965979160175145	30.68205617643342	1458.1424
62.36069984618289	31.5781502954692	1449.3717
61.761243907035045	32.484165713968785	1440.8632
61.16782705772538	33.400368626554155	1432.3527
60.58067030155157	34.32702295544232	1423.5871
59.99999999999999	35.264389682754654	1414.3401
59.42604792856702	36.212726119908915	1404.4254
58.8590513167294	37.17228511139536	1393.7071
58.29925287015328	38.143314170462425	1382.1078
57.74690077310915	39.12605454453247	1369.6116
57.20224866894282	40.12074020854298	1356.2655
56.66555561634145	41.12759678487194	1342.1758
56.13708601903233	42.14684038906587	1327.5026
55.61710952646371	43.178676401255004	1312.4512
55.10590090294487	44.223298163918535	1297.261
54.60373986267208	45.28088560756104	1282.194
54.11091086804023	46.3516038068849	1267.5209
53.62770288864506	47.435601471194154	1253.5087
53.154409118419395	48.53300937404573	1240.4075
52.691326648427214	49.643938728569864	1228.4393
52.23875609296496	50.76847951640774	1217.7879
51.79700116679687	51.90669877984987	1208.5913
51.36636821158484	53.05863888848747	1200.9369
50.94716566986906	54.22431579349069	1194.8583
50.539703505316	55.40371728447302	1190.3363
50.14429256838126	56.59680126575802	1187.3012
49.76124390703504	57.80349407069134	1185.6386
49.390868022772075	59.02368883439022	1185.1965
49.03347407277117	60.25724394694163	1185.7946
48.68936901978189	61.503981610489745	1187.2348
48.35885673209022	62.76368652482927	1189.3116
48.04223703674405	64.03610472697835	1191.8231
47.73980473009234	65.32094261067617	1194.5812
47.45184855059514	66.61786615176922	1197.421
47.178650119779434	67.92650036495783	1200.2078
46.920482858129056	69.2464290163152	1202.8428
46.677610883583455	70.57719461432482	1205.2662
46.450287901158305	71.91829869987819	1207.4581
46.23875609296496	73.2692024527246	1209.4364
46.043245018569806	74.62932762827676	1211.2531
45.86397053617525	75.99805783448308	1212.988
45.701133755495384	77.37474015373697	1214.7405
45.554920033420714	78.7586871095844	1216.6205
45.42549802359849	80.14917897242118	1218.7381
45.31301879088406	81.5454663925662	1221.1936
45.21761500123496	82.94677334320139	1224.0671
45.1394001970194	84.35230034984485	1227.4098
45.07846816689916	85.76122797743554	1231.236
45.03489241843145	87.17272054092642	1235.5183
45.00872576033472	88.58593000067151	1240.1836
45.0	90.0	1245.1126
45.00872576033472	91.41406999932849	1250.1424
45.03489241843145	92.82727945907358	1255.0708
45.07846816689916	94.23877202256445	1259.664
45.1394001970194	95.64769965015516	1263.6666
45.21761500123496	97.05322665679864	1266.8128
45.31301879088406	98.45453360743382	1268.8402
45.42549802359848	99.85082102757882	1269.5031
45.554920033420714	101.2413128904156	1268.5872
45.701133755495384	102.62525984626303	1265.9226
45.86397053617525	104.00194216551692	1261.3964
46.043245018569806	105.37067237172324	1254.9634
46.238756092964955	106.73079754727539	1246.6533
46.450287901158305	108.08170130012182	1236.5767
46.677610883583455	109.42280538567519	1224.9261
46.920482858129056	110.7535709836848	1211.9746
47.178650119779434	112.07349963504215	1198.0701
47.45184855059512	113.38213384823077	1183.6269
47.73980473009234	114.67905738932384	1169.1131
48.04223703674405	115.96389527302166	1155.0362
48.3588567320902	117.23631347517073	1141.9256
48.68936901978189	118.49601838951025	1130.3141
49.03347407277117	119.74275605305839	1120.7179
49.39086802277208	120.9763111656098	1113.6175
49.76124390703504	122.19650592930867	1109.4387
50.14429256838125	123.40319873424197	1108.5355
50.539703505316005	124.59628271552698	1111.1754
50.94716566986905	125.77568420650928	1117.5276
51.36636821158484	126.94136111151253	1127.6556
51.79700116679685	128.09330122015012	1141.5124
52.23875609296496	129.23152048359225	1158.9416
52.691326648427214	130.35606127143015	1179.682
53.154409118419395	131.46699062595425	1203.3765
53.62770288864506	132.56439852880584	1229.5848
54.11091086804023	133.64839619311508	1257.8002
54.60373986267208	134.71911439243897	1287.4683
55.10590090294487	135.7767018360815	1318.0081
55.617109526463715	136.821323598745	1348.8347
56.13708601903233	137.8531596109341	1379.381
56.66555561634144	138.87240321512806	1409.1196
57.20224866894282	139.879259791457	1437.5825
57.74690077310915	140.87394545546752	1464.3785
58.29925287015328	141.85668582953758	1489.2068
58.8590513167294	142.82771488860465	1511.8663
59.42604792856702	143.7872738800911	1532.2614
59.99999999999999	144.73561031724535	1550.402
60.58067030155157	145.6729770445577	1566.3985
61.16782705772538	146.59963137344585	1580.453
61.76124390703503	147.5158342860312	1592.845
62.36069984618289	148.4218497045308	1603.9137
62.96597916017513	149.31794382356657	1614.0373
63.57687134003648	150.20438450253144	1623.6099
64.19317098966519	151.08144071504458	1633.0165
64.81467772324949	151.9493820524694	1642.6092
65.44119605454999	152.808478278447	1652.6832
66.0725352792411	153.65899893141415	1663.4549
66.70850935139694	154.5012129721155	1675.0439
67.34893675510656	155.3353884731886	1687.4581
67.99364037210603	156.16179234798136	1700.5841
68.64244734622547	156.98069011586378	1714.1829
69.29518894536457	157.79234570140352	1727.8909
69.95170042163069	158.59702126489356	1741.2278
70.61182087020094	159.39497706184335	1753.6091
71.2753930874019	160.1864713291706	1764.3647
71.94226342843773	160.9717601959578	1772.7626
72.61228166514054	161.7510976167656	1778.0359
73.28530084406377	162.52473532561788	1779.4133
73.96117714519126	163.29292280889817	1776.1517
74.63976974149092	164.05590729551355	1767.569
75.32094065950206	164.8139337627975	1753.0765
76.00455464110858	165.56724495673262	1732.2092
76.6904790066185	166.31608142517842	1704.6533
77.37858351923944	167.06068156288816	1670.2684
78.0687402510143	167.80128166719328	1629.1054
78.76082345025605	168.5381160033205	1581.4168
79.45470941050044	169.27141687839094	1527.6618
80.15027634097487	170.0014147232256	1468.5022
80.84740423856572	170.72833818115458	1404.793
81.54597476125012	171.45241420309307	1337.5642
82.24587110294536	172.17386814820765	1267.9969
82.94697786971682	172.8929238895535	1197.3932
83.64918095727445	173.60980392411287	1127.1415
84.3523674296794	174.32472948671335	1058.6769
85.05642539917308	175.03792066734437	993.4407
85.76124390703502	175.7495965314293	932.8376
86.4667128053692	176.45997524264365	878.1937
87.17272263971289	177.16927418789817	830.7166
87.87916453235917	177.87771010413212	791.4583
88.58593006627854	178.58549920658245	761.2835
89.29291116952395	179.29285731821275	740.8424
90.0	180.0	730.5517
90.70708883047607	180.70714268178725	730.5813
91.41406993372146	181.41450079341755	740.8503
92.12083546764083	182.12228989586788	761.0299
92.82727736028711	182.83072581210183	790.5543
93.5332871946308	183.54002475735635	828.6394
94.23875609296496	184.2504034685707	874.3076
94.94357460082692	184.96207933265563	926.4187
95.64763257032061	185.67527051328665	983.7053
96.35081904272555	186.39019607588713	1044.8117
97.05302213028318	187.1070761104465	1108.3342
97.75412889705464	187.82613185179233	1172.8634
98.45402523874989	188.54758579690696	1237.0235
99.15259576143428	189.27166181884542	1299.5116
99.84972365902512	189.9985852767744	1359.1315
100.54529058949956	190.72858312160906	1414.8244
101.23917654974393	191.4618839966795	1465.6934
101.93125974898571	192.19871833280675	1511.0213
102.62141648076054	192.93931843711184	1550.2831
103.30952099338153	193.68391857482158	1583.15
103.99544535889142	194.43275504326738	1609.488
104.67905934049796	195.18606623720254	1629.3491
105.36023025850908	195.94409270448645	1642.9569
106.03882285480874	196.7070771911018	1650.6874
106.71469915593623	197.4752646743821	1653.0449
107.38771833485946	198.2489023832344	1650.6352
108.05773657156229	199.0282398040422	1644.1369
108.7246069125981	199.8135286708294	1634.2715
109.38817912979906	200.60502293815665	1621.7741
110.04829957836931	201.40297873510644	1607.3654
110.70481105463544	202.20765429859648	1591.7263
111.35755265377453	203.01930988413622	1575.476
112.00635962789397	203.83820765201864	1559.1537
112.65106324489344	204.6646115268114	1543.2055
113.29149064860306	205.49878702788448	1527.9752
113.92746472075892	206.34100106858588	1513.7014
114.55880394545001	207.191521721553	1500.5181
115.18532227675053	208.05061794753064	1488.4607
115.8068290103348	208.91855928495542	1477.4754
116.42312865996352	209.79561549746856	1467.4326
117.03402083982486	210.68205617643343	1458.1424
117.63930015381712	211.5781502954692	1449.3717
118.23875609296496	212.48416571396876	1440.8632
118.83217294227461	213.40036862655413	1432.3527
119.41932969844842	214.32702295544232	1423.5871
120.00000000000001	215.26438968275463	1414.3401
120.573952071433	216.2127261199089	1404.4254
121.14094868327061	217.17228511139535	1393.7071
121.70074712984672	218.14331417046245	1382.1078
122.25309922689084	219.12605454453248	1369.6116
122.79775133105717	220.12074020854297	1356.2655
123.33444438365854	221.1275967848719	1342.1758
123.86291398096766	222.1468403890659	1327.5026
124.38289047353629	223.17867640125502	1312.4512
124.89409909705513	224.2232981639185	1297.261
125.39626013732791	225.28088560756103	1282.194
125.88908913195978	226.35160380688492	1267.5209
126.37229711135494	227.43560147119416	1253.5087
126.84559088158062	228.53300937404572	1240.4075
127.30867335157278	229.64393872856982	1228.4393
127.76124390703504	230.7684795164077	1217.7879
128.20299883320317	231.90669877984988	1208.5913
128.6336317884152	233.05863888848748	1200.9369
129.05283433013093	234.2243157934907	1194.8583
129.460296494684	235.40371728447298	1190.3363
129.85570743161875	236.59680126575802	1187.3012
130.23875609296496	237.80349407069136	1185.6386
130.60913197722795	239.0236888343902	1185.1965
130.96652592722884	240.25724394694157	1185.7946
131.31063098021812	241.50398161048972	1187.2348
131.6411432679098	242.7636865248293	1189.3116
131.95776296325596	244.03610472697835	1191.8231
132.26019526990768	245.32094261067616	1194.5812
132.54815144940486	246.6178661517692	1197.421
132.8213498802206	247.92650036495786	1200.2078
133.07951714187095	249.2464290163152	1202.8428
133.32238911641656	250.5771946143248	1205.2662
133.5497120988417	251.91829869987816	1207.4581
133.76124390703504	253.26920245272458	1209.4364
133.9567549814302	254.62932762827677	1211.2531
134.13602946382477	255.99805783448306	1212.988
134.2988662445046	257.374740153737	1214.7405
134.44507996657927	258.75868710958434	1216.6205
134.57450197640154	260.14917897242117	1218.7381
134.68698120911597	261.5454663925662	1221.1936
134.78238499876502	262.94677334320136	1224.0671
134.8605998029806	264.3523003498448	1227.4098
134.92153183310086	265.7612279774355	1231.236
134.96510758156856	267.17272054092643	1235.5183
134.99127423966527	268.5859300006715	1240.1836
135.0	270.0	1245.1126
134.99127423966527	271.4140699993285	1250.1424
134.96510758156856	272.82727945907357	1255.0708
134.92153183310086	274.2387720225645	1259.664
134.8605998029806	275.6476996501551	1263.6666
134.78238499876502	277.0532266567986	1266.8128
134.68698120911597	278.45453360743375	1268.8402
134.57450197640154	279.85082102757883	1269.5031
134.44507996657927	281.2413128904156	1268.5872
134.2988662445046	282.625259846263	1265.9226
134.13602946382477	284.0019421655169	1261.3964
133.9567549814302	285.37067237172323	1254.9634
133.76124390703504	286.7307975472754	1246.6533
133.5497120988417	288.08170130012184	1236.5767
133.32238911641656	289.42280538567513	1224.9261
133.07951714187095	290.75357098368477	1211.9746
132.82134988022057	292.0734996350422	1198.0701
132.54815144940488	293.38213384823075	1183.6269
132.26019526990768	294.6790573893238	1169.1131
131.95776296325596	295.9638952730216	1155.0362
131.6411432679098	297.23631347517073	1141.9256
131.31063098021812	298.49601838951025	1130.3141
130.96652592722884	299.7427560530584	1120.7179
130.60913197722795	300.9763111656098	1113.6175
130.23875609296496	302.1965059293086	1109.4387
129.85570743161873	303.403198734242	1108.5355
129.46029649468403	304.59628271552697	1111.1754
129.05283433013096	305.7756842065093	1117.5276
128.6336317884152	306.9413611115125	1127.6556
128.20299883320317	308.0933012201501	1141.5124
127.76124390703505	309.23152048359225	1158.9416
127.3086733515728	310.3560612714301	1179.682
126.84559088158062	311.4669906259543	1203.3765
126.37229711135495	312.5643985288058	1229.5848
125.88908913195978	313.6483961931151	1257.8002
125.39626013732794	314.71911439243894	1287.4683
124.89409909705515	315.77670183608143	1318.0081
124.38289047353632	316.821323598745	1348.8347
123.86291398096766	317.85315961093414	1379.381
123.33444438365856	318.8724032151281	1409.1196
122.7977513310572	319.879259791457	1437.5825
122.25309922689087	320.8739454554675	1464.3785
121.70074712984675	321.8566858295375	1489.2068
121.14094868327061	322.82771488860465	1511.8663
120.57395207143298	323.7872738800911	1532.2614
120.00000000000001	324.73561031724535	1550.402
119.41932969844845	325.6729770445577	1566.3985
118.83217294227461	326.59963137344585	1580.453
118.23875609296496	327.51583428603124	1592.845
117.63930015381712	328.4218497045308	1603.9137
117.03402083982486	329.31794382356657	1614.0373
116.42312865996352	330.2043845025314	1623.6099
115.8068290103348	331.08144071504455	1633.0165
115.18532227675053	331.9493820524694	1642.6092
114.55880394545002	332.808478278447	1652.6832
113.92746472075895	333.6589989314141	1663.4549
113.29149064860304	334.5012129721155	1675.0439
112.65106324489344	335.3353884731886	1687.4581
112.00635962789399	336.16179234798136	1700.5841
111.35755265377455	336.98069011586375	1714.1829
110.70481105463546	337.79234570140346	1727.8909
110.04829957836931	338.59702126489356	1741.2278
109.38817912979906	339.39497706184335	1753.6091
108.7246069125981	340.18647132917056	1764.3647
108.05773657156229	340.9717601959578	1772.7626
107.38771833485946	341.7510976167656	1778.0359
106.71469915593623	342.5247353256179	1779.4133
106.03882285480876	343.2929228088982	1776.1517
105.36023025850909	344.0559072955135	1767.569
104.67905934049797	344.8139337627975	1753.0765
103.99544535889142	345.5672449567326	1732.2092
103.30952099338151	346.3160814251784	1704.6533
102.62141648076056	347.06068156288813	1670.2684
101.93125974898572	347.8012816671932	1629.1054
101.23917654974393	348.5381160033205	1581.4168
100.54529058949956	349.27141687839094	1527.6618
99.84972365902513	350.0014147232256	1468.5022
99.15259576143428	350.7283381811546	1404.793
98.4540252387499	351.45241420309304	1337.5642
97.75412889705464	352.17386814820765	1267.9969
97.05302213028318	352.89292388955346	1197.3932
96.35081904272556	353.60980392411284	1127.1415
95.64763257032062	354.32472948671335	1058.6769
94.94357460082692	355.03792066734434	993.4407
94.23875609296496	355.7495965314293	932.8376
93.53328719463082	356.4599752426436	878.1937
92.82727736028713	357.16927418789817	830.7166
92.12083546764086	357.8777101041321	791.4583
91.41406993372146	358.5854992065825	761.2835
90.70708883047607	359.2928573182127	740.8424
90.0	90.0	940.4805
89.29291116952395	89.29285731821274	938.8986
88.58593006627854	88.58549920658245	939.5154
87.87916453235917	87.87771010413212	942.2264
87.1727226397129	87.16927418789815	946.8445
86.4667128053692	86.45997524264364	953.1097
85.76124390703504	85.74959653142929	960.7
85.05642539917308	85.03792066734437	969.246
84.3523674296794	84.32472948671335	978.3467
83.64918095727445	83.60980392411285	987.5867
82.94697786971682	82.89292388955346	996.5541
82.24587110294536	82.17386814820766	1004.8578
81.54597476125012	81.45241420309306	1012.1435
80.84740423856572	80.72833818115458	1018.1088
80.15027634097487	80.0014147232256	1022.5149
79.45470941050044	79.27141687839094	1025.1961
78.76082345025607	78.5381160033205	1026.0665
78.0687402510143	77.80128166719327	1025.1218
77.37858351923944	77.06068156288816	1022.4395
76.69047900661849	76.31608142517841	1018.174
76.00455464110858	75.56724495673262	1012.5495
75.32094065950206	74.81393376279749	1005.8498
74.63976974149092	74.05590729551355	998.4057
73.96117714519126	73.29292280889818	990.5804
73.28530084406378	72.52473532561788	982.7546
72.61228166514054	71.7510976167656	975.3101
71.94226342843773	70.97176019595781	968.6144
71.27539308740191	70.18647132917059	963.0061
70.61182087020094	69.39497706184336	958.7819
69.95170042163069	68.59702126489356	956.1859
69.29518894536457	67.79234570140352	955.4011
68.64244734622547	66.98069011586378	956.5444
67.99364037210603	66.16179234798135	959.664
67.34893675510656	65.33538847318859	964.7413
66.70850935139694	64.50121297211548	971.694
66.07253527924108	63.65899893141411	980.3838
65.44119605454999	62.808478278447	990.6255
64.81467772324949	61.94938205246937	1002.1986
64.19317098966519	61.081440715044565	1014.86
63.57687134003648	60.20438450253143	1028.358
62.965979160175145	59.31794382356658	1042.4459
62.36069984618289	58.4218497045308	1056.8953
61.761243907035045	57.515834286031215	1071.5086
61.16782705772538	56.59963137344585	1086.1292
60.58067030155157	55.67297704455769	1100.6498
59.99999999999999	54.735610317245346	1115.0183
59.42604792856702	53.787273880091085	1129.2401
58.8590513167294	52.827714888604646	1143.3782
58.29925287015328	51.85668582953758	1157.5502
57.74690077310915	50.87394545546753	1171.9214
57.20224866894282	49.87925979145702	1186.6971
56.66555561634145	48.87240321512806	1202.1112
56.13708601903233	47.85315961093413	1218.4141
55.61710952646371	46.821323598745	1235.8587
55.10590090294487	45.776701836081465	1254.6871
54.60373986267208	44.71911439243896	1275.1164
54.11091086804023	43.6483961931151	1297.3258
53.62770288864506	42.564398528805846	1321.4458
53.154409118419395	41.46699062595427	1347.5484
52.691326648427214	40.356061271430136	1375.6404
52.23875609296496	39.23152048359226	1405.6596
51.79700116679687	38.09330122015014	1437.4738
51.36636821158484	36.941361111512535	1470.8831
50.94716566986906	35.77568420650932	1505.6251
50.539703505316	34.59628271552699	1541.3832
50.14429256838126	33.40319873424199	1577.7974
49.76124390703504	32.19650592930866	1614.4768
49.390868022772075	30.976311165609783	1651.0139
49.03347407277117	29.742756053058372	1686.9999
48.68936901978189	28.496018389510258	1722.0397
48.35885673209022	27.236313475170732	1755.7668
48.04223703674405	25.963895273021652	1787.8571
47.73980473009234	24.679057389323834	1818.0403
47.45184855059514	23.382133848230776	1846.1095
47.178650119779434	22.07349963504216	1871.9281
46.920482858129056	20.753570983684796	1895.4327
46.677610883583455	19.422805385675183	1916.6337
46.450287901158305	18.08170130012181	1935.6122
46.23875609296496	16.730797547275397	1952.513
46.043245018569806	15.370672371723243	1967.5357
45.86397053617525	14.001942165516926	1980.9225
45.701133755495384	12.625259846263035	1992.9441
45.554920033420714	11.241312890415616	2003.8844
45.42549802359849	9.850821027578828	2014.0239
45.31301879088406	8.454533607433808	2023.6236
45.21761500123496	7.053226656798624	2032.9096
45.1394001970194	5.647699650155149	2042.0589
45.07846816689916	4.238772022564465	2051.1874
45.03489241843145	2.8272794590735852	2060.3407
45.00872576033472	1.414069999328503	2069.4882
45.0	4.961562726608714e-15	2078.52
45.00872576033472	358.5859300006715	2087.249
45.03489241843145	357.17272054092643	2095.4147
45.07846816689916	355.76122797743557	2102.6924
45.1394001970194	354.3523003498448	2108.7046
45.21761500123496	352.94677334320136	2113.036
45.31301879088406	351.5454663925662	2115.2496
45.42549802359848	350.14917897242117	2114.9059
45.554920033420714	348.7586871095844	2111.5819
45.701133755495384	347.374740153737	2104.8904
45.86397053617525	345.99805783448306	2094.4984
46.043245018569806	344.62932762827677	2080.1441
46.238756092964955	343.26920245272464	2061.6515
46.450287901158305	341.91829869987816	2038.9419
46.677610883583455	340.5771946143248	2012.0421
46.920482858129056	339.2464290163152	1981.0882
47.178650119779434	337.92650036495786	1946.3257
47.45184855059512	336.61786615176925	1908.1055
47.73980473009234	335.3209426106762	1866.8752
48.04223703674405	334.03610472697835	1823.1669
48.3588567320902	332.76368652482927	1777.5817
48.68936901978189	331.50398161048975	1730.7716
49.03347407277117	330.2572439469416	1683.4185
49.39086802277208	329.0236888343902	1636.2127
49.76124390703504	327.80349407069133	1589.8305
50.14429256838125	326.596801265758	1544.9128
50.539703505316005	325.40371728447303	1502.0438
50.94716566986905	324.2243157934907	1461.7333
51.36636821158484	323.05863888848745	1424.4009
51.79700116679685	321.9066987798499	1390.3635
52.23875609296496	320.76847951640775	1359.8275
52.691326648427214	319.6439387285699	1332.8846
53.154409118419395	318.5330093740457	1309.5121
53.62770288864506	317.43560147119416	1289.5777
54.11091086804023	316.3516038068849	1272.8482
54.60373986267208	315.28088560756106	1259.0023
55.10590090294487	314.2232981639185	1247.6459
55.617109526463715	313.17867640125496	1238.331
56.13708601903233	312.14684038906586	1230.5752
56.66555561634144	311.12759678487197	1223.883
57.20224866894282	310.120740208543	1217.7667
57.74690077310915	309.1260545445325	1211.7669
58.29925287015328	308.1433141704624	1205.4706
58.8590513167294	307.17228511139535	1198.5283
59.42604792856702	306.2127261199089	1190.6661
59.99999999999999	305.26438968275465	1181.6965
60.58067030155157	304.3270229554423	1171.523
61.16782705772538	303.40036862655415	1160.1427
61.76124390703503	302.4841657139688	1147.6431
62.36069984618289	301.5781502954692	1134.1959
62.96597916017513	300.68205617643343	1120.0468
63.57687134003648	299.7956154974686	1105.5019
64.19317098966519	298.91855928495545	1090.9124
64.81467772324949	298.0506179475306	1076.6561
65.44119605454999	297.191521721553	1063.1193
66.0725352792411	296.3410010685859	1050.677
66.70850935139694	295.49878702788453	1039.6752
67.34893675510656	294.6646115268114	1030.4132
67.99364037210603	293.83820765201864	1023.1292
68.64244734622547	293.0193098841362	1017.9881
69.29518894536457	292.2076542985965	1015.0727
69.95170042163069	291.40297873510644	1014.3783
70.61182087020094	290.60502293815665	1015.8122
71.2753930874019	289.81352867082944	1019.1959
71.94226342843773	289.0282398040422	1024.2721
72.61228166514054	288.2489023832344	1030.7142
73.28530084406377	287.4752646743821	1038.1403
73.96117714519126	286.7070771911018	1046.128
74.63976974149092	285.9440927044865	1054.2326
75.32094065950206	285.1860662372025	1062.0051
76.00455464110858	284.4327550432674	1069.0112
76.6904790066185	283.6839185748216	1074.8497
77.37858351923944	282.93931843711187	1079.1687
78.0687402510143	282.1987183328067	1081.6812
78.76082345025605	281.4618839966795	1082.1765
79.45470941050044	280.72858312160906	1080.5292
80.15027634097487	279.9985852767744	1076.7048
80.84740423856572	279.2716618188454	1070.7604
81.54597476125012	278.54758579690696	1062.8428
82.24587110294536	277.82613185179235	1053.182
82.94697786971682	277.10707611044654	1042.0815
83.64918095727445	276.39019607588716	1029.9056
84.3523674296794	275.67527051328665	1017.0639
85.05642539917308	274.96207933265566	1003.9943
85.76124390703502	274.2504034685707	991.1444
86.4667128053692	273.5400247573564	978.9535
87.17272263971289	272.83072581210183	967.8337
87.87916453235917	272.1222898958679	958.1534
88.58593006627854	271.4145007934176	950.2224
89.29291116952395	270.7071426817872	944.2788
90.0	270.0	940.4805
90.70708883047607	269.2928573182127	938.8986
91.41406993372146	268.5854992065824	939.5154
92.12083546764083	267.8777101041321	942.2264
92.82727736028711	267.16927418789817	946.8445
93.5332871946308	266.4599752426436	953.1097
94.23875609296496	265.7495965314293	960.7
94.94357460082692	265.03792066734434	969.246
95.64763257032061	264.32472948671335	978.3467
96.35081904272555	263.60980392411284	987.5867
97.05302213028318	262.89292388955346	996.5541
97.75412889705464	262.17386814820765	1004.8578
98.45402523874989	261.45241420309304	1012.1435
99.15259576143428	260.7283381811546	1018.1088
99.84972365902512	260.0014147232256	1022.5149
100.54529058949956	259.27141687839094	1025.1961
101.23917654974393	258.5381160033205	1026.0665
101.93125974898571	257.8012816671933	1025.1218
102.62141648076054	257.06068156288813	1022.4395
103.30952099338153	256.31608142517837	1018.174
103.99544535889142	255.56724495673262	1012.5495
104.67905934049796	254.8139337627975	1005.8498
105.36023025850908	254.05590729551355	998.4057
106.03882285480874	253.2929228088982	990.5804
106.71469915593623	252.52473532561788	982.7546
107.38771833485946	251.7510976167656	975.3101
108.05773657156229	250.9717601959578	968.6144
108.7246069125981	250.18647132917056	963.0061
109.38817912979906	249.39497706184335	958.7819
110.04829957836931	248.59702126489356	956.1859
110.70481105463544	247.79234570140352	955.4011
111.35755265377453	246.98069011586378	956.5444
112.00635962789397	246.16179234798136	959.664
112.65106324489344	245.33538847318857	964.7413
113.29149064860306	244.50121297211547	971.694
113.92746472075892	243.6589989314141	980.3838
114.55880394545001	242.808478278447	990.6255
115.18532227675053	241.9493820524694	1002.1986
115.8068290103348	241.08144071504458	1014.86
116.42312865996352	240.2043845025314	1028.358
117.03402083982486	239.31794382356657	1042.4459
117.63930015381712	238.4218497045308	1056.8953
118.23875609296496	237.5158342860312	1071.5086
118.83217294227461	236.59963137344585	1086.1292
119.41932969844842	235.67297704455768	1100.6498
120.00000000000001	234.73561031724535	1115.0183
120.573952071433	233.78727388009108	1129.2401
121.14094868327061	232.82771488860465	1143.3782
121.70074712984672	231.85668582953755	1157.5502
122.25309922689084	230.87394545546752	1171.9214
122.79775133105717	229.879259791457	1186.6971
123.33444438365854	228.8724032151281	1202.1112
123.86291398096766	227.8531596109341	1218.4141
124.38289047353629	226.82132359874498	1235.8587
124.89409909705513	225.7767018360815	1254.6871
125.39626013732791	224.71911439243897	1275.1164
125.88908913195978	223.64839619311508	1297.3258
126.37229711135494	222.56439852880584	1321.4458
126.84559088158062	221.46699062595428	1347.5484
127.30867335157278	220.35606127143015	1375.6404
127.76124390703504	219.23152048359228	1405.6596
128.20299883320317	218.0933012201501	1437.4738
128.6336317884152	216.94136111151252	1470.8831
129.05283433013093	215.7756842065093	1505.6251
129.460296494684	214.59628271552702	1541.3832
129.85570743161875	213.40319873424195	1577.7974
130.23875609296496	212.19650592930864	1614.4768
130.60913197722795	210.9763111656098	1651.0139
130.96652592722884	209.74275605305837	1686.9999
131.31063098021812	208.49601838951028	1722.0397
131.6411432679098	207.2363134751707	1755.7668
131.95776296325596	205.96389527302162	1787.8571
132.26019526990768	204.67905738932384	1818.0403
132.54815144940486	203.38213384823078	1846.1095
132.8213498802206	202.07349963504214	1871.9281
133.07951714187095	200.75357098368477	1895.4327
133.32238911641656	199.4228053856752	1916.6337
133.5497120988417	198.08170130012184	1935.6122
133.76124390703504	196.73079754727542	1952.513
133.9567549814302	195.3706723717232	1967.5357
134.13602946382477	194.0019421655169	1980.9225
134.2988662445046	192.62525984626305	1992.9441
134.44507996657927	191.24131289041563	2003.8844
134.57450197640154	189.8508210275788	2014.0239
134.68698120911597	188.4545336074338	2023.6236
134.78238499876502	187.0532266567986	2032.9096
134.8605998029806	185.64769965015518	2042.0589
134.92153183310086	184.2387720225645	2051.1874
134.96510758156856	182.82727945907357	2060.3407
134.99127423966527	181.4140699993285	2069.4882
135.0	180.0	2078.52
134.99127423966527	178.58593000067157	2087.249
134.96510758156856	177.1727205409264	2095.4147
134.92153183310086	175.76122797743554	2102.6924
134.8605998029806	174.35230034984485	2108.7046
134.78238499876502	172.94677334320141	2113.036
134.68698120911597	171.54546639256625	2115.2496
134.57450197640154	170.14917897242117	2114.9059
134.44507996657927	168.7586871095844	2111.5819
134.2988662445046	167.37474015373698	2104.8904
134.13602946382477	165.9980578344831	2094.4984
133.9567549814302	164.62932762827674	2080.1441
133.76124390703504	163.2692024527246	2061.6515
133.5497120988417	161.9182986998782	2038.9419
133.32238911641656	160.57719461432484	2012.0421
133.07951714187095	159.24642901631526	1981.0882
132.82134988022057	157.92650036495783	1946.3257
132.54815144940488	156.61786615176925	1908.1055
132.26019526990768	155.32094261067618	1866.8752
131.95776296325596	154.03610472697838	1823.1669
131.6411432679098	152.76368652482927	1777.5817
131.31063098021812	151.50398161048975	1730.7716
130.96652592722884	150.25724394694163	1683.4185
130.60913197722795	149.02368883439024	1636.2127
130.23875609296496	147.80349407069139	1589.8305
129.85570743161873	146.596801265758	1544.9128
129.46029649468403	145.403717284473	1502.0438
129.05283433013096	144.22431579349072	1461.7333
128.6336317884152	143.0586388884875	1424.4009
128.20299883320317	141.90669877984988	1390.3635
127.76124390703505	140.76847951640775	1359.8275
127.3086733515728	139.64393872856988	1332.8846
126.84559088158062	138.53300937404575	1309.5121
126.37229711135495	137.4356014711942	1289.5777
125.88908913195978	136.35160380688492	1272.8482
125.39626013732794	135.28088560756106	1259.0023
124.89409909705515	134.22329816391854	1247.6459
124.38289047353632	133.17867640125502	1238.331
123.86291398096766	132.14684038906586	1230.5752
123.33444438365856	131.12759678487194	1223.883
122.7977513310572	130.120740208543	1217.7667
122.25309922689087	129.12605454453248	1211.7669
121.70074712984675	128.14331417046245	1205.4706
121.14094868327061	127.17228511139534	1198.5283
120.57395207143298	126.21272611990892	1190.6661
120.00000000000001	125.26438968275468	1181.6965
119.41932969844845	124.32702295544235	1171.523
118.83217294227461	123.40036862655414	1160.1427
118.23875609296496	122.48416571396879	1147.6431
117.63930015381712	121.57815029546921	1134.1959
117.03402083982486	120.68205617643345	1120.0468
116.42312865996352	119.79561549746859	1105.5019
115.8068290103348	118.91855928495542	1090.9124
115.18532227675053	118.05061794753063	1076.6561
114.55880394545002	117.19152172155302	1063.1193
113.92746472075895	116.34100106858591	1050.677
113.29149064860304	115.49878702788452	1039.6752
112.65106324489344	114.66461152681141	1030.4132
112.00635962789399	113.83820765201867	1023.1292
111.35755265377455	113.01930988413625	1017.9881
110.70481105463546	112.20765429859652	1015.0727
110.04829957836931	111.40297873510644	1014.3783
109.38817912979906	110.60502293815665	1015.8122
108.7246069125981	109.81352867082943	1019.1959
108.05773657156229	109.02823980404222	1024.2721
107.38771833485946	108.2489023832344	1030.7142
106.71469915593623	107.47526467438213	1038.1403
106.03882285480876	106.70707719110183	1046.128
105.36023025850909	105.94409270448648	1054.2326
104.67905934049797	105.18606623720254	1062.0051
103.99544535889142	104.43275504326738	1069.0112
103.30952099338151	103.68391857482159	1074.8497
102.62141648076056	102.93931843711185	1079.1687
101.93125974898572	102.19871833280676	1081.6812
101.23917654974393	101.4618839966795	1082.1765
100.54529058949956	100.72858312160906	1080.5292
99.84972365902513	99.99858527677442	1076.7048
99.15259576143428	99.27166181884544	1070.7604
98.4540252387499	98.54758579690696	1062.8428
97.75412889705464	97.82613185179234	1053.182
97.05302213028318	97.10707611044654	1042.0815
96.35081904272556	96.39019607588716	1029.9056
95.64763257032062	95.67527051328666	1017.0639
94.94357460082692	94.96207933265563	1003.9943
94.23875609296496	94.25040346857071	991.1444
93.53328719463082	93.54002475735638	978.9535
92.82727736028713	92.83072581210186	967.8337
92.12083546764086	92.12228989586791	958.1534
91.41406993372146	91.41450079341756	950.2224
90.70708883047607	90.70714268178726	944.2788
90.0	0.0	710.1286
90.0	1.0	711.871
90.0	2.0	716.0362
90.0	3.0000000000000004	722.4792
90.0	4.0	730.9883
90.0	5.0	741.2932
90.0	6.000000000000001	753.075
90.0	7.0	765.9778
90.0	8.0	779.6215
90.0	9.0	793.6156
90.0	10.0	807.5728
90.0	11.0	821.1224
90.0	12.0	833.923
90.0	13.0	845.673
90.0	14.0	856.1206
90.0	14.999999999999998	865.0708
90.0	16.0	872.39
90.0	17.000000000000004	878.0092
90.0	18.0	881.9228
90.0	19.0	884.1872
90.0	20.0	884.9153
90.0	21.0	884.2699
90.0	22.0	882.455
90.0	23.0	879.7066
90.0	24.000000000000004	876.2813
90.0	25.0	872.4459
90.0	26.0	868.4659
90.0	26.999999999999996	864.596
90.0	28.0	861.0698
90.0	29.000000000000004	858.0921
90.0	29.999999999999996	855.8326
90.0	31.0	854.4213
90.0	32.0	853.9454
90.0	33.0	854.4494
90.0	34.00000000000001	855.9358
90.0	35.0	858.3688
90.0	36.0	861.679
90.0	37.0	865.7692
90.0	38.0	870.5219
90.0	39.0	875.807
90.0	40.0	881.4896
90.0	41.0	887.4376
90.0	42.0	893.5294
90.0	43.0	899.66
90.0	44.0	905.7459
90.0	45.0	911.7293
90.0	46.00000000000001	917.58
90.0	47.0	923.2956
90.0	48.00000000000001	928.901
90.0	49.00000000000001	934.4456
90.0	50.0	939.9986
90.0	51.0	945.6447
90.0	52.0	951.4773
90.0	53.0	957.5925
90.0	54.0	964.0817
90.0	55.0	971.0251
90.0	56.0	978.486
90.0	57.00000000000001	986.505
90.0	58.00000000000001	995.0961
90.0	59.00000000000001	1004.2437
90.0	59.99999999999999	1013.9016
90.0	61.0	1023.9933
90.0	62.0	1034.4136
90.0	63.0	1045.0322
90.0	64.0	1055.6989
90.0	65.0	1066.2491
90.0	66.0	1076.511
90.0	67.0	1086.3129
90.0	68.0	1095.4911
90.0	69.0	1103.8973
90.0	70.0	1111.4052
90.0	71.0	1117.9172
90.0	72.0	1123.369
90.0	73.0	1127.7327
90.0	74.0	1131.0192
90.0	75.0	1133.2777
90.0	76.0	1134.594
90.0	77.0	1135.0873
90.0	78.0	1134.9042
90.0	79.0	1134.2131
90.0	80.0	1133.1955
90.0	81.0	1132.0379
90.0	82.0	1130.9228
90.0	83.0	1130.0196
90.0	84.0	1129.4756
90.0	85.0	1129.409
90.0	86.0	1129.9015
90.0	87.0	1130.9936
90.0	88.0	1132.6809
90.0	89.0	1134.913
90.0	90.0	1137.5942
90.0	91.0	1140.5863
90.0	92.0	1143.713
90.0	93.0	1146.7674
90.0	94.0	1149.5196
90.0	95.0	1151.7264
90.0	96.00000000000001	1153.1421
90.0	97.0	1153.5292
90.0	98.0	1152.6691
90.0	99.0	1150.3728
90.0	100.0	1146.4904
90.0	101.0	1140.919
90.0	102.0	1133.609
90.0	103.0	1124.5688
90.0	104.0	1113.8667
90.0	105.00000000000001	1101.6302
90.0	106.0	1088.0439
90.0	107.0	1073.3436
90.0	108.0	1057.8096
90.0	109.0	1041.7573
90.0	110.0	1025.5262
90.0	111.0	1009.4682
90.0	112.0	993.9351
90.0	113.0	979.2654
90.0	114.00000000000001	965.7724
90.0	115.0	953.7322
90.0	116.00000000000001	943.3741
90.0	117.0	934.8713
90.0	118.00000000000001	928.3354
90.0	119.0	923.8121
90.0	119.99999999999999	921.2797
90.0	121.0	920.6505
90.0	122.0	921.7747
90.0	123.00000000000001	924.4465
90.0	124.0	928.4126
90.0	125.00000000000001	933.3823
90.0	126.0	939.0394
90.0	127.00000000000001	945.0546
90.0	128.0	951.0987
90.0	129.0	956.8551
90.0	130.0	962.0327
90.0	131.0	966.3762
90.0	132.0	969.6762
90.0	133.0	971.7759
90.0	134.0	972.5771
90.0	135.0	972.0419
90.0	136.0	970.1936
90.0	137.0	967.1131
90.0	138.0	962.9345
90.0	139.0	957.8376
90.0	140.0	952.0382
90.0	141.0	945.7779
90.0	142.0	939.3117
90.0	143.0	932.8959
90.0	144.0	926.7756
90.0	145.0	921.1728
90.0	146.0	916.2758
90.0	147.0	912.2298
90.0	148.0	909.1297
90.0	149.0	907.015
90.0	150.0	905.8674
90.0	151.0	905.6109
90.0	152.0	906.1145
90.0	153.0	907.1975
90.0	154.0	908.6372
90.0	155.0	910.1783
90.0	156.0	911.5444
90.0	157.0	912.45
90.0	158.0	912.6137
90.0	159.0	911.7712
90.0	160.0	909.6878
90.0	161.0	906.1697
90.0	162.0	901.0743
90.0	163.0	894.3179
90.0	164.0	885.8818
90.0	165.0	875.8148
90.0	166.0	864.2342
90.0	167.0	851.3229
90.0	168.0	837.3245
90.0	169.0	822.5359
90.0	170.0	807.2971
90.0	171.0	791.9795
90.0	172.0	776.9733
90.0	173.0	762.673
90.0	174.0	749.4634
90.0	175.0	737.7055
90.0	176.0	727.7235
90.0	177.0	719.7926
90.0	178.0	714.1289
90.0	179.0	710.8819
90.0	180.0	710.1286
90.0	181.0	711.871
90.0	181.99999999999997	716.0362
90.0	182.99999999999997	722.4792
90.0	183.99999999999997	730.9883
90.0	184.99999999999997	741.2932
90.0	185.99999999999997	753.075
90.0	186.99999999999997	765.9778
90.0	188.0	779.6215
90.0	188.99999999999997	793.6156
90.0	190.0	807.5728
90.0	190.99999999999997	821.1224
90.0	192.0	833.923
90.0	192.99999999999997	845.673
90.0	193.99999999999997	856.1206
90.0	194.99999999999997	865.0708
90.0	195.99999999999997	872.39
90.0	197.0	878.0092
90.0	197.99999999999997	881.9228
90.0	199.0	884.1872
90.0	199.99999999999997	884.9153
90.0	201.0	884.2699
90.0	201.99999999999997	882.455
90.0	203.0	879.7066
90.0	203.99999999999997	876.2813
90.0	204.99999999999997	872.4459
90.0	206.0	868.4659
90.0	206.99999999999997	864.596
90.0	208.0	861.0698
90.0	208.99999999999997	858.0921
90.0	210.0	855.8326
90.0	210.99999999999997	854.4213
90.0	212.0	853.9454
90.0	212.99999999999997	854.4494
90.0	214.0	855.9358
90.0	215.0	858.3688
90.0	216.0	861.679
90.0	217.0	865.7692
90.0	217.99999999999997	870.5219
90.0	219.00000000000003	875.807
90.0	219.99999999999997	881.4896
90.0	220.99999999999997	887.4376
90.0	221.99999999999997	893.5294
90.0	223.0	899.66
90.0	224.0	905.7459
90.0	224.99999999999997	911.7293
90.0	226.0	917.58
90.0	227.0	923.2956
90.0	228.0	928.901
90.0	229.0	934.4456
90.0	230.0	939.9986
90.0	230.99999999999997	945.6447
90.0	232.00000000000003	951.4773
90.0	233.0	957.5925
90.0	233.99999999999997	964.0817
90.0	234.99999999999994	971.0251
90.0	236.0	978.486
90.0	237.0	986.505
90.0	238.0	995.0961
90.0	239.0	1004.2437
90.0	239.99999999999994	1013.9016
90.0	241.0	1023.9933
90.0	242.0	1034.4136
90.0	242.99999999999997	1045.0322
90.0	243.99999999999994	1055.6989
90.0	245.0	1066.2491
90.0	246.0	1076.511
90.0	247.0	1086.3129
90.0	248.0	1095.4911
90.0	248.99999999999997	1103.8973
90.0	250.0	1111.4052
90.0	251.0	1117.9172
90.0	252.0	1123.369
90.0	252.99999999999997	1127.7327
90.0	254.0	1131.0192
90.0	255.0	1133.2777
90.0	256.0	1134.594
90.0	257.0	1135.0873
90.0	258.0	1134.9042
90.0	259.0	1134.2131
90.0	260.0	1133.1955
90.0	261.0	1132.0379
90.0	262.0	1130.9228
90.0	263.0	1130.0196
90.0	264.0	1129.4756
90.0	265.0	1129.409
90.0	266.0	1129.9015
90.0	267.0	1130.9936
90.0	268.0	1132.6809
90.0	269.0	1134.913
90.0	270.0	1137.5942
90.0	271.0	1140.5863
90.0	272.0	1143.713
90.0	273.0	1146.7674
90.0	274.0	1149.5196
90.0	275.0	1151.7264
90.0	276.0	1153.1421
90.0	277.0	1153.5292
90.0	278.0	1152.6691
90.0	279.0	1150.3728
90.0	280.0	1146.4904
90.0	281.0	1140.919
90.0	282.0	1133.609
90.0	283.0	1124.5688
90.0	284.0	1113.8667
90.0	285.0	1101.6302
90.0	286.0	1088.0439
90.0	287.0	1073.3436
90.0	288.0	1057.8096
90.0	289.0	1041.7573
90.0	290.0	1025.5262
90.0	291.0	1009.4682
90.0	292.0	993.9351
90.0	293.0	979.2654
90.0	294.0	965.7724
90.0	295.0	953.7322
90.0	296.0	943.3741
90.0	297.0	934.8713
90.0	298.0	928.3354
90.0	299.0	923.8121
90.0	300.0	921.2797
90.0	301.0	920.6505
90.0	302.0	921.7747
90.0	303.0	924.4465
90.0	304.0	928.4126
90.0	305.0	933.3823
90.0	306.0	939.0394
90.0	307.0	945.0546
90.0	308.0	951.0987
90.0	309.0	956.8551
90.0	310.0	962.0327
90.0	311.0	966.3762
90.0	311.99999999999994	969.6762
90.0	313.0	971.7759
90.0	314.0	972.5771
90.0	315.0	972.0419
90.0	316.0	970.1936
90.0	317.0	967.1131
90.0	318.0	962.9345
90.0	319.0	957.8376
90.0	320.0	952.0382
90.0	321.0	945.7779
90.0	322.0	939.3117
90.0	323.0	932.8959
90.0	324.0	926.7756
90.0	325.0	921.1728
90.0	326.0	916.2758
90.0	327.0	912.2298
90.0	328.0	909.1297
90.0	329.0	907.015
90.0	330.0	905.8674
90.0	331.0	905.6109
90.0	332.0	906.1145
90.0	333.0	907.1975
90.0	334.0	908.6372
90.0	335.0	910.1783
90.0	336.0	911.5444
90.0	337.0	912.45
90.0	338.0	912.6137
90.0	338.99999999999994	911.7712
90.0	340.0	909.6878
90.0	341.0	906.1697
90.0	342.0	901.0743
90.0	343.0	894.3179
90.0	344.0	885.8818
90.0	345.0	875.8148
90.0	346.0	864.2342
90.0	347.0	851.3229
90.0	347.99999999999994	837.3245
90.0	349.0	822.5359
90.0	350.0	807.2971
90.0	351.0	791.9795
90.0	352.0	776.9733
90.0	353.0	762.673
90.0	354.0	749.4634
90.0	355.0	737.7055
90.0	356.0	727.7235
90.0	356.99999999999994	719.7926
90.0	358.0	714.1289
90.0	359.0	710.8819
90.0	0.0	698.7552
89.0	0.0	705.0476
88.0	0.0	729.072
87.00000000000001	0.0	769.9971
86.0	0.0	826.4553
85.0	0.0	896.5978
84.0	0.0	978.1693
83.0	0.0	1068.5986
82.0	0.0	1165.1012
81.0	0.0	1264.7889
80.0	0.0	1364.7836
79.0	0.0	1462.3277
78.00000000000001	0.0	1554.8886
77.0	0.0	1640.2523
76.0	0.0	1716.6014
75.0	0.0	1782.5754
74.0	0.0	1837.3099
73.0	0.0	1880.4545
72.0	0.0	1912.1667
71.0	0.0	1933.0851
70.0	0.0	1944.2805
69.00000000000001	0.0	1947.1895
68.0	0.0	1943.5324
67.0	0.0	1935.2199
66.0	0.0	1924.2526
65.0	0.0	1912.6177
64.0	0.0	1902.1887
63.0	0.0	1894.6308
62.0	0.0	1891.3182
61.0	0.0	1893.2661
60.00000000000001	0.0	1901.0797
59.00000000000001	0.0	1914.9251
58.00000000000001	0.0	1934.5198
57.00000000000001	0.0	1959.1469
55.99999999999999	0.0	1987.6889
55.00000000000001	0.0	2018.6831
54.0	0.0	2050.3927
53.00000000000001	0.0	2080.8928
52.0	0.0	2108.1663
51.00000000000001	0.0	2130.2062
50.00000000000001	0.0	2145.1175
49.00000000000001	0.0	2151.2179
48.0	0.0	2147.1279
47.0	0.0	2131.8505
46.00000000000001	0.0	2104.8337
45.0	0.0	2066.0147
44.0	0.0	2015.842
43.0	0.0	1955.2761
42.0	0.0	1885.7664
41.0	0.0	1809.2071
40.00000000000001	0.0	1727.8722
39.0	0.0	1644.3328
37.99999999999999	0.0	1561.3609
37.0	0.0	1481.8225
36.0	0.0	1408.5648
35.0	0.0	1344.3032
34.0	0.0	1291.5121
33.0	0.0	1252.3239
31.99999999999999	0.0	1228.4421
31.0	0.0	1221.0698
30.000000000000004	0.0	1230.8598
29.00000000000001	0.0	1257.8856
28.000000000000007	0.0	1301.6362
27.00000000000001	0.0	1361.0351
25.999999999999996	0.0	1434.4818
25.000000000000004	0.0	1519.9149
24.000000000000004	0.0	1614.8931
22.999999999999993	0.0	1716.6928
21.999999999999996	0.0	1822.415
21.0	0.0	1929.1002
20.00000000000001	0.0	2033.8437
19.000000000000014	0.0	2133.9087
18.00000000000001	0.0	2226.8302
17.000000000000007	0.0	2310.5072
15.999999999999995	0.0	2383.278
14.999999999999996	0.0	2443.9758
14.0	0.0	2491.9635
12.999999999999996	0.0	2527.1433
12.000000000000018	0.0	2549.9448
10.999999999999993	0.0	2561.2888
10.000000000000012	0.0	2562.5302
8.999999999999984	0.0	2555.383
7.999999999999981	0.0	2541.829
7.000000000000025	0.0	2524.0167
6.000000000000026	0.0	2504.1524
4.999999999999992	0.0	2484.391
4.000000000000042	0.0	2466.7287
3.0000000000000444	0.0	2452.9053
1.9999999999999472	0.0	2444.3176
0.9999999999999002	0.0	2441.9501
0.0	0.0	2446.3246
0.9999999999999002	180.0	2457.4724
1.9999999999999472	180.0	2474.9287
3.0000000000000444	180.0	2497.7512
4.000000000000042	180.0	2524.5609
4.999999999999992	180.0	2553.6043
6.000000000000026	180.0	2582.8339
6.9999999999999725	180.0	2610.0029
7.999999999999981	180.0	2632.7716
8.999999999999984	180.0	2648.8186
10.000000000000012	180.0	2655.9542
10.999999999999993	180.0	2652.2293
11.999999999999988	180.0	2636.0354
12.999999999999996	180.0	2606.1916
14.0	180.0	2562.0142
14.999999999999996	180.0	2503.3661
15.999999999999995	180.0	2430.6828
16.99999999999999	180.0	2344.9752
17.999999999999986	180.0	2247.8065
18.999999999999996	180.0	2141.2471
19.999999999999993	180.0	2027.8056
21.0	180.0	1910.3418
21.999999999999996	180.0	1791.9633
23.00000000000001	180.0	1675.9108
24.000000000000004	180.0	1565.4362
24.99999999999999	180.0	1463.6792
26.000000000000007	180.0	1373.5477
26.999999999999996	180.0	1297.6053
28.000000000000007	180.0	1237.973
28.999999999999996	180.0	1196.2478
29.999999999999993	180.0	1173.4413
31.0	180.0	1169.9419
31.99999999999999	180.0	1185.5017
33.0	180.0	1219.248
34.0	180.0	1269.7199
35.000000000000014	180.0	1334.9278
36.0	180.0	1412.4332
37.000000000000014	180.0	1499.4459
37.99999999999999	180.0	1592.934
38.99999999999999	180.0	1689.7423
40.00000000000001	180.0	1786.7136
40.999999999999986	180.0	1880.809
42.0	180.0	1969.221
43.0	180.0	2049.4754
44.00000000000001	180.0	2119.5169
45.0	180.0	2177.7773
46.000000000000014	180.0	2223.2199
47.0	180.0	2255.3623
47.999999999999986	180.0	2274.2744
49.00000000000001	180.0	2280.5527
49.99999999999999	180.0	2275.2727
51.00000000000001	180.0	2259.9215
51.99999999999999	180.0	2236.3131
53.000000000000014	180.0	2206.4917
53.99999999999999	180.0	2172.6262
55.000000000000014	180.0	2136.9016
55.99999999999999	180.0	2101.4113
56.999999999999986	180.0	2068.056
58.00000000000001	180.0	2038.4529
58.99999999999999	180.0	2013.8602
60.00000000000001	180.0	1995.1189
61.0	180.0	1982.6157
62.000000000000014	180.0	1976.2682
63.0	180.0	1975.532
64.00000000000001	180.0	1979.4315
65.0	180.0	1986.6099
65.99999999999999	180.0	1995.3996
67.0	180.0	2003.9063
68.0	180.0	2010.1059
69.00000000000001	180.0	2011.9476
70.0	180.0	2007.4603
71.00000000000001	180.0	1994.8554
72.0	180.0	1972.6241
73.00000000000001	180.0	1939.6212
74.0	180.0	1895.1356
74.99999999999999	180.0	1838.9404
76.0	180.0	1771.3227
77.0	180.0	1693.0912
78.00000000000001	180.0	1605.5599
79.0	180.0	1510.5099
80.00000000000001	180.0	1410.1299
81.0	180.0	1306.9386
82.00000000000001	180.0	1203.6909
83.0	180.0	1103.2735
83.99999999999999	180.0	1008.5933
85.0	180.0	922.4635
86.0	180.0	847.4926
87.00000000000001	180.0	785.9805
88.0	180.0	739.827
89.00000000000001	180.0	710.4553
90.0	180.0	698.7552
91.00000000000001	180.0	705.0476
92.0	180.0	729.072
92.99999999999999	180.0	769.9971
94.0	180.0	826.4553
95.0	180.0	896.5978
96.00000000000001	180.0	978.1693
97.0	180.0	1068.5986
98.00000000000001	180.0	1165.1012
99.0	180.0	1264.7889
100.00000000000001	180.0	1364.7836
101.0	180.0	1462.3277
102.00000000000001	180.0	1554.8886
103.0	180.0	1640.2523
104.0	180.0	1716.6014
105.00000000000001	180.0	1782.5754
106.0	180.0	1837.3099
107.00000000000001	180.0	1880.4545
108.0	180.0	1912.1667
109.00000000000001	180.0	1933.0851
110.0	180.0	1944.2805
111.00000000000001	180.0	1947.1895
112.0	180.0	1943.5324
113.0	180.0	1935.2199
114.00000000000001	180.0	1924.2526
115.0	180.0	1912.6177
116.00000000000001	180.0	1902.1887
117.0	180.0	1894.6308
118.00000000000001	180.0	1891.3182
119.0	180.0	1893.2661
120.00000000000001	180.0	1901.0797
121.0	180.0	1914.9251
122.0	180.0	1934.5198
123.00000000000001	180.0	1959.1469
124.0	180.0	1987.6889
125.00000000000001	180.0	2018.6831
126.0	180.0	2050.3927
127.00000000000001	180.0	2080.8928
128.0	180.0	2108.1663
129.00000000000003	180.0	2130.2062
130.0	180.0	2145.1175
131.0	180.0	2151.2179
132.0	180.0	2147.1279
133.0	180.0	2131.8505
134.0	180.0	2104.8337
135.0	180.0	2066.0147
136.0	180.0	2015.842
137.0	180.0	1955.2761
138.00000000000003	180.0	1885.7664
139.0	180.0	1809.2071
140.0	180.0	1727.8722
140.99999999999997	180.0	1644.3328
142.00000000000003	180.0	1561.3609
143.0	180.0	1481.8225
144.0	180.0	1408.5648
145.0	180.0	1344.3032
146.00000000000003	180.0	1291.5121
147.00000000000003	180.0	1252.3239
148.0	180.0	1228.4421
149.0	180.0	1221.0698
149.99999999999997	180.0	1230.8598
151.00000000000003	180.0	1257.8856
152.0	180.0	1301.6362
153.0	180.0	1361.0351
154.0	180.0	1434.4818
155.00000000000003	180.0	1519.9149
156.00000000000003	180.0	1614.8931
157.0	180.0	1716.6928
158.0	180.0	1822.415
158.99999999999997	180.0	1929.1002
160.00000000000003	180.0	2033.8437
161.0	180.0	2133.9087
162.0	180.0	2226.8302
163.0	180.0	2310.5072
164.00000000000003	180.0	2383.278
165.00000000000003	180.0	2443.9758
166.0	180.0	2491.9635
167.0	180.0	2527.1433
167.99999999999997	180.0	2549.9448
169.00000000000003	180.0	2561.2888
169.99999999999997	180.0	2562.5302
170.99999999999997	180.0	2555.383
172.0	180.0	2541.829
173.00000000000003	180.0	2524.0167
174.00000000000003	180.0	2504.1524
175.0	180.0	2484.391
175.99999999999997	180.0	2466.7287
176.99999999999994	180.0	2452.9053
178.00000000000006	180.0	2444.3176
179.0000000000001	180.0	2441.9501
180.0	180.0	2446.3246
179.0000000000001	0.0	2457.4724
178.00000000000006	0.0	2474.9287
176.99999999999994	0.0	2497.7512
176.00000000000006	0.0	2524.5609
175.0	0.0	2553.6043
174.00000000000003	0.0	2582.8339
172.99999999999997	0.0	2610.0029
172.0	0.0	2632.7716
171.00000000000003	0.0	2648.8186
170.00000000000003	0.0	2655.9542
168.99999999999997	0.0	2652.2293
167.99999999999997	0.0	2636.0354
167.00000000000003	0.0	2606.1916
166.00000000000003	0.0	2562.0142
165.00000000000003	0.0	2503.3661
163.99999999999997	0.0	2430.6828
163.0	0.0	2344.9752
162.00000000000003	0.0	2247.8065
161.00000000000003	0.0	2141.2471
160.0	0.0	2027.8056
159.0	0.0	1910.3418
158.00000000000003	0.0	1791.9633
157.00000000000003	0.0	1675.9108
156.00000000000003	0.0	1565.4362
154.99999999999997	0.0	1463.6792
154.0	0.0	1373.5477
153.00000000000003	0.0	1297.6053
152.0	0.0	1237.973
150.99999999999997	0.0	1196.2478
150.0	0.0	1173.4413
149.0	0.0	1169.9419
148.0	0.0	1185.5017
147.00000000000003	0.0	1219.248
146.0	0.0	1269.7199
145.0	0.0	1334.9278
144.00000000000003	0.0	1412.4332
143.0	0.0	1499.4459
142.0	0.0	1592.934
140.99999999999997	0.0	1689.7423
140.00000000000003	0.0	1786.7136
139.00000000000003	0.0	1880.809
138.00000000000003	0.0	1969.221
137.0	0.0	2049.4754
136.0	0.0	2119.5169
135.00000000000003	0.0	2177.7773
134.00000000000003	0.0	2223.2199
132.99999999999997	0.0	2255.3623
131.99999999999997	0.0	2274.2744
131.00000000000003	0.0	2280.5527
130.00000000000003	0.0	2275.2727
129.00000000000003	0.0	2259.9215
128.0	0.0	2236.3131
126.99999999999999	0.0	2206.4917
126.00000000000003	0.0	2172.6262
125.00000000000004	0.0	2136.9016
123.99999999999997	0.0	2101.4113
122.99999999999999	0.0	2068.056
122.0	0.0	2038.4529
121.0	0.0	2013.8602
120.00000000000001	0.0	1995.1189
119.0	0.0	1982.6157
118.00000000000001	0.0	1976.2682
117.00000000000003	0.0	1975.532
116.00000000000004	0.0	1979.4315
115.0	0.0	1986.6099
114.00000000000001	0.0	1995.3996
113.00000000000001	0.0	2003.9063
112.00000000000003	0.0	2010.1059
111.00000000000004	0.0	2011.9476
110.0	0.0	2007.4603
109.00000000000001	0.0	1994.8554
108.00000000000003	0.0	1972.6241
107.00000000000004	0.0	1939.6212
106.0	0.0	1895.1356
105.0	0.0	1838.9404
104.00000000000001	0.0	1771.3227
103.00000000000001	0.0	1693.0912
102.00000000000003	0.0	1605.5599
100.99999999999999	0.0	1510.5099
100.0	0.0	1410.1299
99.00000000000001	0.0	1306.9386
98.00000000000003	0.0	1203.6909
96.99999999999999	0.0	1103.2735
96.0	0.0	1008.5933
95.0	0.0	922.4635
94.00000000000001	0.0	847.4926
93.00000000000003	0.0	785.9805
91.99999999999999	0.0	739.827
91.0	0.0	710.4553
90.0	90.0	898.4098
89.0	90.0	896.0488
88.0	90.0	895.4074
87.00000000000001	90.0	896.4336
86.0	90.0	899.0133
85.0	90.0	902.9761
84.0	90.0	908.1039
83.0	90.0	914.1412
82.0	90.0	920.8072
81.0	90.0	927.8086
80.0	90.0	934.8528
79.0	90.0	941.6615
78.00000000000001	90.0	947.9826
77.0	90.0	953.6018
76.0	90.0	958.3514
75.0	90.0	962.1181
74.0	90.0	964.8473
73.0	90.0	966.5455
72.0	90.0	967.2798
71.0	90.0	967.1749
70.0	90.0	966.4074
69.00000000000001	90.0	965.1987
68.0	90.0	963.8052
67.0	90.0	962.5078
66.0	90.0	961.6009
65.0	90.0	961.3801
64.0	90.0	962.1315
63.0	90.0	964.1207
62.0	90.0	967.5834
61.0	90.0	972.7183
60.00000000000001	90.0	979.6806
59.00000000000001	90.0	988.5791
58.00000000000001	90.0	999.4748
57.00000000000001	90.0	1012.3818
55.99999999999999	90.0	1027.2708
55.00000000000001	90.0	1044.0739
54.0	90.0	1062.6918
53.00000000000001	90.0	1083.0021
52.0	90.0	1104.8674
51.00000000000001	90.0	1128.1454
50.00000000000001	90.0	1152.6973
49.00000000000001	90.0	1178.3968
48.0	90.0	1205.1368
47.0	90.0	1232.8354
46.00000000000001	90.0	1261.4399
45.0	90.0	1290.9286
44.0	90.0	1321.3106
43.0	90.0	1352.6231
42.0	90.0	1384.9269
41.0	90.0	1418.3001
40.00000000000001	90.0	1452.8299
39.0	90.0	1488.6035
37.99999999999999	90.0	1525.6981
37.0	90.0	1564.1711
36.0	90.0	1604.0499
35.0	90.0	1645.3236
34.0	90.0	1687.9348
33.0	90.0	1731.7747
31.99999999999999	90.0	1776.679
31.0	90.0	1822.4272
30.000000000000004	90.0	1868.7445
29.00000000000001	90.0	1915.3055
28.000000000000007	90.0	1961.7416
27.00000000000001	90.0	2007.6507
25.999999999999996	90.0	2052.6081
25.000000000000004	90.0	2096.1799
24.000000000000004	90.0	2137.9377
22.999999999999993	90.0	2177.473
21.999999999999996	90.0	2214.4123
21.0	90.0	2248.4316
20.00000000000001	90.0	2279.2685
19.000000000000014	90.0	2306.7338
18.00000000000001	90.0	2330.7196
17.000000000000007	90.0	2351.205
15.999999999999995	90.0	2368.2582
14.999999999999996	90.0	2382.0356
14.0	90.0	2392.7771
12.999999999999996	90.0	2400.7984
12.000000000000018	90.0	2406.4792
10.999999999999993	90.0	2410.2501
10.000000000000012	90.0	2412.5757
8.999999999999984	90.0	2413.9371
7.999999999999981	90.0	2414.8129
7.000000000000025	90.0	2415.6598
6.000000000000026	90.0	2416.8942
4.999999999999992	90.0	2418.8744
4.000000000000042	90.0	2421.8854
3.0000000000000444	90.0	2426.1262
1.9999999999999472	90.0	2431.6996
0.9999999999999002	90.0	2438.6067
0.0	90.0	2446.7443
0.9999999999999002	270.0	2455.9074
1.9999999999999472	270.0	2465.7945
3.0000000000000444	270.0	2476.0177
4.000000000000042	270.0	2486.1164
4.999999999999992	270.0	2495.5731
6.000000000000026	270.0	2503.8323
6.9999999999999725	270.0	2510.3214
7.999999999999981	270.0	2514.4718
8.999999999999984	270.0	2515.7406
10.000000000000012	270.0	2513.6313
10.999999999999993	270.0	2507.7133
11.999999999999988	270.0	2497.6389
12.999999999999996	270.0	2483.1571
14.0	270.0	2464.1243
14.999999999999996	270.0	2440.5109
15.999999999999995	270.0	2412.4039
16.99999999999999	270.0	2380.0047
17.999999999999986	270.0	2343.6231
18.999999999999996	270.0	2303.6675
19.999999999999993	270.0	2260.6312
21.0	270.0	2215.0757
21.999999999999996	270.0	2167.6119
23.00000000000001	270.0	2118.8794
24.000000000000004	270.0	2069.525
24.99999999999999	270.0	2020.1815
26.000000000000007	270.0	1971.4473
26.999999999999996	270.0	1923.8671
28.000000000000007	270.0	1877.9159
28.999999999999996	270.0	1833.9853
29.999999999999993	270.0	1792.3734
31.0	270.0	1753.2785
31.99999999999999	270.0	1716.7974
33.0	270.0	1682.9266
34.0	270.0	1651.5687
35.000000000000014	270.0	1622.5409
36.0	270.0	1595.5886
37.000000000000014	270.0	1570.3993
37.99999999999999	270.0	1546.6204
38.99999999999999	270.0	1523.8771
40.00000000000001	270.0	1501.791
40.999999999999986	270.0	1479.9981
42.0	270.0	1458.1663
43.0	270.0	1436.0101
44.00000000000001	270.0	1413.3036
45.0	270.0	1389.8902
46.000000000000014	270.0	1365.6892
47.0	270.0	1340.6986
47.999999999999986	270.0	1314.9942
49.00000000000001	270.0	1288.7255
49.99999999999999	270.0	1262.1081
51.00000000000001	270.0	1235.413
51.99999999999999	270.0	1208.9539
53.000000000000014	270.0	1183.0722
53.99999999999999	270.0	1158.1209
55.000000000000014	270.0	1134.4485
55.99999999999999	270.0	1112.3827
56.999999999999986	270.0	1092.2148
58.00000000000001	270.0	1074.1869
58.99999999999999	270.0	1058.4797
60.00000000000001	270.0	1045.2048
61.0	270.0	1034.398
62.000000000000014	270.0	1026.0182
63.0	270.0	1019.9473
64.00000000000001	270.0	1015.9955
65.0	270.0	1013.9081
65.99999999999999	270.0	1013.376
67.0	270.0	1014.0483
68.0	270.0	1015.546
69.00000000000001	270.0	1017.478
70.0	270.0	1019.4563
71.00000000000001	270.0	1021.112
72.0	270.0	1022.1097
73.00000000000001	270.0	1022.1605
74.0	270.0	1021.0336
74.99999999999999	270.0	1018.5642
76.0	270.0	1014.6594
77.0	270.0	1009.3008
78.00000000000001	270.0	1002.5439
79.0	270.0	994.5142
80.00000000000001	270.0	985.4007
81.0	270.0	975.4466
82.00000000000001	270.0	964.9377
83.0	270.0	954.1895
83.99999999999999	270.0	943.533
85.0	270.0	933.2998
86.0	270.0	923.8078
87.00000000000001	270.0	915.3478
88.0	270.0	908.1704
89.00000000000001	270.0	902.4768
90.0	270.0	898.4098
91.00000000000001	270.0	896.0488
92.0	270.0	895.4074
92.99999999999999	270.0	896.4336
94.0	270.0	899.0133
95.0	270.0	902.9761
96.00000000000001	270.0	908.1039
97.0	270.0	914.1412
98.00000000000001	270.0	920.8072
99.0	270.0	927.8086
100.00000000000001	270.0	934.8528
101.0	270.0	941.6615
102.00000000000001	270.0	947.9826
103.0	270.0	953.6018
104.0	270.0	958.3514
105.00000000000001	270.0	962.1181
106.0	270.0	964.8473
107.00000000000001	270.0	966.5455
108.0	270.0	967.2798
109.00000000000001	270.0	967.1749
110.0	270.0	966.4074
111.00000000000001	270.0	965.1987
112.0	270.0	963.8052
113.0	270.0	962.5078
114.00000000000001	270.0	961.6009
115.0	270.0	961.3801
116.00000000000001	270.0	962.1315
117.0	270.0	964.1207
118.00000000000001	270.0	967.5834
119.0	270.0	972.7183
120.00000000000001	270.0	979.6806
121.0	270.0	988.5791
122.0	270.0	999.4748
123.00000000000001	270.0	1012.3818
124.0	270.0	1027.2708
125.00000000000001	270.0	1044.0739
126.0	270.0	1062.6918
127.00000000000001	270.0	1083.0021
128.0	270.0	1104.8674
129.00000000000003	270.0	1128.1454
130.0	270.0	1152.6973
131.0	270.0	1178.3968
132.0	270.0	1205.1368
133.0	270.0	1232.8354
134.0	270.0	1261.4399
135.0	270.0	1290.9286
136.0	270.0	1321.3106
137.0	270.0	1352.6231
138.00000000000003	270.0	1384.9269
139.0	270.0	1418.3001
140.0	270.0	1452.8299
140.99999999999997	270.0	1488.6035
142.00000000000003	270.0	1525.6981
143.0	270.0	1564.1711
144.0	270.0	1604.0499
145.0	270.0	1645.3236
146.00000000000003	270.0	1687.9348
147.00000000000003	270.0	1731.7747
148.0	270.0	1776.679
149.0	270.0	1822.4272
149.99999999999997	270.0	1868.7445
151.00000000000003	270.0	1915.3055
152.0	270.0	1961.7416
153.0	270.0	2007.6507
154.0	270.0	2052.6081
155.00000000000003	270.0	2096.1799
156.00000000000003	270.0	2137.9377
157.0	270.0	2177.473
158.0	270.0	2214.4123
158.99999999999997	270.0	2248.4316
160.00000000000003	270.0	2279.2685
161.0	270.0	2306.7338
162.0	270.0	2330.7196
163.0	270.0	2351.205
164.00000000000003	270.0	2368.2582
165.00000000000003	270.0	2382.0356
166.0	270.0	2392.7771
167.0	270.0	2400.7984
167.99999999999997	270.0	2406.4792
169.00000000000003	270.0	2410.2501
169.99999999999997	270.0	2412.5757
170.99999999999997	270.0	2413.9371
172.0	270.0	2414.8129
173.00000000000003	270.0	2415.6598
174.00000000000003	270.0	2416.8942
175.0	270.0	2418.8744
175.99999999999997	270.0	2421.8854
176.99999999999994	270.0	2426.1262
178.00000000000006	270.0	2431.6996
179.0000000000001	270.0	2438.6067
180.0	270.0	2446.7443
179.0000000000001	90.0	2455.9074
178.00000000000006	90.0	2465.7945
176.99999999999994	90.0	2476.0177
176.00000000000006	90.0	2486.1164
175.0	90.0	2495.5731
174.00000000000003	90.0	2503.8323
172.99999999999997	90.0	2510.3214
172.0	90.0	2514.4718
171.00000000000003	90.0	2515.7406
170.00000000000003	90.0	2513.6313
168.99999999999997	90.0	2507.7133
167.99999999999997	90.0	2497.6389
167.00000000000003	90.0	2483.1571
166.00000000000003	90.0	2464.1243
165.00000000000003	90.0	2440.5109
163.99999999999997	90.0	2412.4039
163.0	90.0	2380.0047
162.00000000000003	90.0	2343.6231
161.00000000000003	90.0	2303.6675
160.0	90.0	2260.6312
159.0	90.0	2215.0757
158.00000000000003	90.0	2167.6119
157.00000000000003	90.0	2118.8794
156.00000000000003	90.0	2069.525
154.99999999999997	90.0	2020.1815
154.0	90.0	1971.4473
153.00000000000003	90.0	1923.8671
152.0	90.0	1877.9159
150.99999999999997	90.0	1833.9853
150.0	90.0	1792.3734
149.0	90.0	1753.2785
148.0	90.0	1716.7974
147.00000000000003	90.0	1682.9266
146.0	90.0	1651.5687
145.0	90.0	1622.5409
144.00000000000003	90.0	1595.5886
143.0	90.0	1570.3993
142.0	90.0	1546.6204
140.99999999999997	90.0	1523.8771
140.00000000000003	90.0	1501.791
139.00000000000003	90.0	1479.9981
138.00000000000003	90.0	1458.1663
137.0	90.0	1436.0101
136.0	90.0	1413.3036
135.00000000000003	90.0	1389.8902
134.00000000000003	90.0	1365.6892
132.99999999999997	90.0	1340.6986
131.99999999999997	90.0	1314.9942
131.00000000000003	90.0	1288.7255
130.00000000000003	90.0	1262.1081
129.00000000000003	90.0	1235.413
128.0	90.0	1208.9539
126.99999999999999	90.0	1183.0722
126.00000000000003	90.0	1158.1209
125.00000000000004	90.0	1134.4485
123.99999999999997	90.0	1112.3827
122.99999999999999	90.0	1092.2148
122.0	90.0	1074.1869
121.0	90.0	1058.4797
120.00000000000001	90.0	1045.2048
119.0	90.0	1034.398
118.00000000000001	90.0	1026.0182
117.00000000000003	90.0	1019.9473
116.00000000000004	90.0	1015.9955
115.0	90.0	1013.9081
114.00000000000001	90.0	1013.376
113.00000000000001	90.0	1014.0483
112.00000000000003	90.0	1015.546
111.00000000000004	90.0	1017.478
110.0	90.0	1019.4563
109.00000000000001	90.0	1021.112
108.00000000000003	90.0	1022.1097
107.00000000000004	90.0	1022.1605
106.0	90.0	1021.0336
105.0	90.0	1018.5642
104.00000000000001	90.0	1014.6594
103.00000000000001	90.0	1009.3008
102.00000000000003	90.0	1002.5439
100.99999999999999	90.0	994.5142
100.0	90.0	985.4007
99.00000000000001	90.0	975.4466
98.00000000000003	90.0	964.9377
96.99999999999999	90.0	954.1895
96.0	90.0	943.533
95.0	90.0	933.2998
94.00000000000001	90.0	923.8078
93.00000000000003	90.0	915.3478
91.99999999999999	90.0	908.1704
91.0	90.0	902.4768
