Polar Angle 	 Azimuth Angle 	 Intensity 
90.0	0.0	643.4885
89.0	0.0	641.6811
88.0	0.0	640.2338
87.00000000000001	0.0	639.2301
86.0	0.0	638.7739
85.0	0.0	638.9853
84.0	0.0	639.9953
83.0	0.0	641.9409
82.0	0.0	644.9584
81.0	0.0	649.1779
80.0	0.0	654.7162
79.0	0.0	661.6716
78.00000000000001	0.0	670.1178
77.0	0.0	680.0991
76.0	0.0	691.6261
75.0	0.0	704.6728
74.0	0.0	719.174
73.0	0.0	735.025
72.0	0.0	752.081
71.0	0.0	770.1592
70.0	0.0	789.0414
69.00000000000001	0.0	808.4778
68.0	0.0	828.1915
67.0	0.0	847.8849
66.0	0.0	867.2456
65.0	0.0	885.9541
64.0	0.0	903.6904
63.0	0.0	920.1424
62.0	0.0	935.0124
61.0	0.0	948.0254
60.00000000000001	0.0	958.9346
59.00000000000001	0.0	967.5282
58.00000000000001	0.0	973.634
57.00000000000001	0.0	977.1241
55.99999999999999	0.0	977.917
55.00000000000001	0.0	975.9803
54.0	0.0	971.3309
53.00000000000001	0.0	964.0345
52.0	0.0	954.2036
51.00000000000001	0.0	941.9948
50.00000000000001	0.0	927.6049
49.00000000000001	0.0	911.2657
48.0	0.0	893.2387
47.0	0.0	873.809
46.00000000000001	0.0	853.2784
45.0	0.0	831.9585
44.0	0.0	810.1646
43.0	0.0	788.2081
42.0	0.0	766.3906
41.0	0.0	744.9981
40.00000000000001	0.0	724.2954
39.0	0.0	704.5222
37.99999999999999	0.0	685.8885
37.0	0.0	668.5727
36.0	0.0	652.7192
35.0	0.0	638.4377
34.0	0.0	625.8031
33.0	0.0	614.8564
31.99999999999999	0.0	605.6063
31.0	0.0	598.0315
30.000000000000004	0.0	592.0839
29.00000000000001	0.0	587.6916
28.000000000000007	0.0	584.763
27.00000000000001	0.0	583.1907
25.999999999999996	0.0	582.8553
25.000000000000004	0.0	583.6298
24.000000000000004	0.0	585.3833
22.999999999999993	0.0	587.9844
21.999999999999996	0.0	591.3047
21.0	0.0	595.2211
20.00000000000001	0.0	599.6187
19.000000000000014	0.0	604.3919
18.00000000000001	0.0	609.4459
17.000000000000007	0.0	614.6973
15.999999999999995	0.0	620.0739
14.999999999999996	0.0	625.5148
14.0	0.0	630.9689
12.999999999999996	0.0	636.3941
12.000000000000018	0.0	641.7556
10.999999999999993	0.0	647.0242
10.000000000000012	0.0	652.1744
8.999999999999984	0.0	657.1826
7.999999999999981	0.0	662.0249
7.000000000000025	0.0	666.676
6.000000000000026	0.0	671.1071
4.999999999999992	0.0	675.2854
4.000000000000042	0.0	679.1726
3.0000000000000444	0.0	682.7249
1.9999999999999472	0.0	685.8928
0.9999999999999002	0.0	688.6217
0.0	0.0	690.8528
0.9999999999999002	180.0	692.524
1.9999999999999472	180.0	693.572
3.0000000000000444	180.0	693.9345
4.000000000000042	180.0	693.5518
4.999999999999992	180.0	692.3699
6.000000000000026	180.0	690.3432
6.9999999999999725	180.0	687.4368
7.999999999999981	180.0	683.6295
8.999999999999984	180.0	678.9162
10.000000000000012	180.0	673.31
10.999999999999993	180.0	666.8448
11.999999999999988	180.0	659.576
12.999999999999996	180.0	651.5821
14.0	180.0	642.9652
14.999999999999996	180.0	633.8507
15.999999999999995	180.0	624.3867
16.99999999999999	180.0	614.7426
17.999999999999986	180.0	605.1072
18.999999999999996	180.0	595.6855
19.999999999999993	180.0	586.6962
21.0	180.0	578.3668
21.999999999999996	180.0	570.9302
23.00000000000001	180.0	564.6193
24.000000000000004	180.0	559.662
24.99999999999999	180.0	556.276
26.000000000000007	180.0	554.6636
26.999999999999996	180.0	555.006
28.000000000000007	180.0	557.4586
28.999999999999996	180.0	562.1462
29.999999999999993	180.0	569.1584
31.0	180.0	578.5464
31.99999999999999	180.0	590.3199
33.0	180.0	604.4448
34.0	180.0	620.8421
35.000000000000014	180.0	639.3879
36.0	180.0	659.914
37.000000000000014	180.0	682.2097
37.99999999999999	180.0	706.0247
38.99999999999999	180.0	731.0732
40.00000000000001	180.0	757.0383
40.999999999999986	180.0	783.5779
42.0	180.0	810.3308
43.0	180.0	836.9241
44.00000000000001	180.0	862.9799
45.0	180.0	888.1236
46.000000000000014	180.0	911.9909
47.0	180.0	934.2359
47.999999999999986	180.0	954.5382
49.00000000000001	180.0	972.6095
49.99999999999999	180.0	988.1998
51.00000000000001	180.0	1001.1025
51.99999999999999	180.0	1011.159
53.000000000000014	180.0	1018.2613
53.99999999999999	180.0	1022.3544
55.000000000000014	180.0	1023.4369
55.99999999999999	180.0	1021.5603
56.999999999999986	180.0	1016.8272
58.00000000000001	180.0	1009.3884
58.99999999999999	180.0	999.4385
60.00000000000001	180.0	987.211
61.0	180.0	972.9717
62.000000000000014	180.0	957.0125
63.0	180.0	939.6435
64.00000000000001	180.0	921.1858
65.0	180.0	901.9636
65.99999999999999	180.0	882.2965
67.0	180.0	862.4923
68.0	180.0	842.8402
69.00000000000001	180.0	823.6049
70.0	180.0	805.0212
71.00000000000001	180.0	787.29
72.0	180.0	770.5757
73.00000000000001	180.0	755.0037
74.0	180.0	740.6604
74.99999999999999	180.0	727.5939
76.0	180.0	715.8153
77.0	180.0	705.3024
78.00000000000001	180.0	696.0033
79.0	180.0	687.841
80.00000000000001	180.0	680.7193
81.0	180.0	674.5282
82.00000000000001	180.0	669.1506
83.0	180.0	664.4681
83.99999999999999	180.0	660.3669
85.0	180.0	656.7439
86.0	180.0	653.5114
87.00000000000001	180.0	650.6016
88.0	180.0	647.9695
89.00000000000001	180.0	645.596
90.0	180.0	643.4885
91.00000000000001	180.0	641.6811
92.0	180.0	640.2338
92.99999999999999	180.0	639.2301
94.0	180.0	638.7739
95.0	180.0	638.9853
96.00000000000001	180.0	639.9953
97.0	180.0	641.9409
98.00000000000001	180.0	644.9584
99.0	180.0	649.1779
100.00000000000001	180.0	654.7162
101.0	180.0	661.6716
102.00000000000001	180.0	670.1178
103.0	180.0	680.0991
104.0	180.0	691.6261
105.00000000000001	180.0	704.6728
106.0	180.0	719.174
107.00000000000001	180.0	735.025
108.0	180.0	752.081
109.00000000000001	180.0	770.1592
110.0	180.0	789.0414
111.00000000000001	180.0	808.4778
112.0	180.0	828.1915
113.0	180.0	847.8849
114.00000000000001	180.0	867.2456
115.0	180.0	885.9541
116.00000000000001	180.0	903.6904
117.0	180.0	920.1424
118.00000000000001	180.0	935.0124
119.0	180.0	948.0254
120.00000000000001	180.0	958.9346
121.0	180.0	967.5282
122.0	180.0	973.634
123.00000000000001	180.0	977.1241
124.0	180.0	977.917
125.00000000000001	180.0	975.9803
126.0	180.0	971.3309
127.00000000000001	180.0	964.0345
128.0	180.0	954.2036
129.00000000000003	180.0	941.9948
130.0	180.0	927.6049
131.0	180.0	911.2657
132.0	180.0	893.2387
133.0	180.0	873.809
134.0	180.0	853.2784
135.0	180.0	831.9585
136.0	180.0	810.1646
137.0	180.0	788.2081
138.00000000000003	180.0	766.3906
139.0	180.0	744.9981
140.0	180.0	724.2954
140.99999999999997	180.0	704.5222
142.00000000000003	180.0	685.8885
143.0	180.0	668.5727
144.0	180.0	652.7192
145.0	180.0	638.4377
146.00000000000003	180.0	625.8031
147.00000000000003	180.0	614.8564
148.0	180.0	605.6063
149.0	180.0	598.0315
149.99999999999997	180.0	592.0839
151.00000000000003	180.0	587.6916
152.0	180.0	584.763
153.0	180.0	583.1907
154.0	180.0	582.8553
155.00000000000003	180.0	583.6298
156.00000000000003	180.0	585.3833
157.0	180.0	587.9844
158.0	180.0	591.3047
158.99999999999997	180.0	595.2211
160.00000000000003	180.0	599.6187
161.0	180.0	604.3919
162.0	180.0	609.4459
163.0	180.0	614.6973
164.00000000000003	180.0	620.0739
165.00000000000003	180.0	625.5148
166.0	180.0	630.9689
167.0	180.0	636.3941
167.99999999999997	180.0	641.7556
169.00000000000003	180.0	647.0242
169.99999999999997	180.0	652.1744
170.99999999999997	180.0	657.1826
172.0	180.0	662.0249
173.00000000000003	180.0	666.676
174.00000000000003	180.0	671.1071
175.0	180.0	675.2854
175.99999999999997	180.0	679.1726
176.99999999999994	180.0	682.7249
178.00000000000006	180.0	685.8928
179.0000000000001	180.0	688.6217
180.0	180.0	690.8528
179.0000000000001	0.0	692.524
178.00000000000006	0.0	693.572
176.99999999999994	0.0	693.9345
176.00000000000006	0.0	693.5518
175.0	0.0	692.3699
174.00000000000003	0.0	690.3432
172.99999999999997	0.0	687.4368
172.0	0.0	683.6295
171.00000000000003	0.0	678.9162
170.00000000000003	0.0	673.31
168.99999999999997	0.0	666.8448
167.99999999999997	0.0	659.576
167.00000000000003	0.0	651.5821
166.00000000000003	0.0	642.9652
165.00000000000003	0.0	633.8507
163.99999999999997	0.0	624.3867
163.0	0.0	614.7426
162.00000000000003	0.0	605.1072
161.00000000000003	0.0	595.6855
160.0	0.0	586.6962
159.0	0.0	578.3668
158.00000000000003	0.0	570.9302
157.00000000000003	0.0	564.6193
156.00000000000003	0.0	559.662
154.99999999999997	0.0	556.276
154.0	0.0	554.6636
153.00000000000003	0.0	555.006
152.0	0.0	557.4586
150.99999999999997	0.0	562.1462
150.0	0.0	569.1584
149.0	0.0	578.5464
148.0	0.0	590.3199
147.00000000000003	0.0	604.4448
146.0	0.0	620.8421
145.0	0.0	639.3879
144.00000000000003	0.0	659.914
143.0	0.0	682.2097
142.0	0.0	706.0247
140.99999999999997	0.0	731.0732
140.00000000000003	0.0	757.0383
139.00000000000003	0.0	783.5779
138.00000000000003	0.0	810.3308
137.0	0.0	836.9241
136.0	0.0	862.9799
135.00000000000003	0.0	888.1236
134.00000000000003	0.0	911.9909
132.99999999999997	0.0	934.2359
131.99999999999997	0.0	954.5382
131.00000000000003	0.0	972.6095
130.00000000000003	0.0	988.1998
129.00000000000003	0.0	1001.1025
128.0	0.0	1011.159
126.99999999999999	0.0	1018.2613
126.00000000000003	0.0	1022.3544
125.00000000000004	0.0	1023.4369
123.99999999999997	0.0	1021.5603
122.99999999999999	0.0	1016.8272
122.0	0.0	1009.3884
121.0	0.0	999.4385
120.00000000000001	0.0	987.211
119.0	0.0	972.9717
118.00000000000001	0.0	957.0125
117.00000000000003	0.0	939.6435
116.00000000000004	0.0	921.1858
115.0	0.0	901.9636
114.00000000000001	0.0	882.2965
113.00000000000001	0.0	862.4923
112.00000000000003	0.0	842.8402
111.00000000000004	0.0	823.6049
110.0	0.0	805.0212
109.00000000000001	0.0	787.29
108.00000000000003	0.0	770.5757
107.00000000000004	0.0	755.0037
106.0	0.0	740.6604
105.0	0.0	727.5939
104.00000000000001	0.0	715.8153
103.00000000000001	0.0	705.3024
102.00000000000003	0.0	696.0033
100.99999999999999	0.0	687.841
100.0	0.0	680.7193
99.00000000000001	0.0	674.5282
98.00000000000003	0.0	669.1506
96.99999999999999	0.0	664.4681
96.0	0.0	660.3669
95.0	0.0	656.7439
94.00000000000001	0.0	653.5114
93.00000000000003	0.0	650.6016
91.99999999999999	0.0	647.9695
91.0	0.0	645.596
90.0	90.0	968.6404
89.0	90.0	970.1111
88.0	90.0	973.5982
87.00000000000001	90.0	979.026
86.0	90.0	986.2658
85.0	90.0	995.1401
84.0	90.0	1005.4276
83.0	90.0	1016.869
82.0	90.0	1029.175
81.0	90.0	1042.0347
80.0	90.0	1055.1239
79.0	90.0	1068.1146
78.00000000000001	90.0	1080.6841
77.0	90.0	1092.5234
76.0	90.0	1103.3456
75.0	90.0	1112.893
74.0	90.0	1120.9432
73.0	90.0	1127.314
72.0	90.0	1131.8669
71.0	90.0	1134.5089
70.0	90.0	1135.1936
69.00000000000001	90.0	1133.9198
68.0	90.0	1130.7297
67.0	90.0	1125.705
66.0	90.0	1118.9631
65.0	90.0	1110.6512
64.0	90.0	1100.9409
63.0	90.0	1090.0216
62.0	90.0	1078.0939
61.0	90.0	1065.3639
60.00000000000001	90.0	1052.0364
59.00000000000001	90.0	1038.31
58.00000000000001	90.0	1024.3719
57.00000000000001	90.0	1010.3937
55.99999999999999	90.0	996.5286
55.00000000000001	90.0	982.9087
54.0	90.0	969.644
53.00000000000001	90.0	956.822
52.0	90.0	944.5076
51.00000000000001	90.0	932.7452
50.00000000000001	90.0	921.5594
49.00000000000001	90.0	910.9583
48.0	90.0	900.9356
47.0	90.0	891.4733
46.00000000000001	90.0	882.5451
45.0	90.0	874.1186
44.0	90.0	866.158
43.0	90.0	858.6264
42.0	90.0	851.4874
41.0	90.0	844.7065
40.00000000000001	90.0	838.252
39.0	90.0	832.0953
37.99999999999999	90.0	826.2108
37.0	90.0	820.5755
36.0	90.0	815.1686
35.0	90.0	809.9702
34.0	90.0	804.9604
33.0	90.0	800.1184
31.99999999999999	90.0	795.4216
31.0	90.0	790.845
30.000000000000004	90.0	786.3605
29.00000000000001	90.0	781.9371
28.000000000000007	90.0	777.5411
27.00000000000001	90.0	773.1367
25.999999999999996	90.0	768.6871
25.000000000000004	90.0	764.1557
24.000000000000004	90.0	759.5081
22.999999999999993	90.0	754.7133
21.999999999999996	90.0	749.7461
21.0	90.0	744.5886
20.00000000000001	90.0	739.2322
19.000000000000014	90.0	733.6792
18.00000000000001	90.0	727.9433
17.000000000000007	90.0	722.0512
15.999999999999995	90.0	716.0423
14.999999999999996	90.0	709.9688
14.0	90.0	703.8943
12.999999999999996	90.0	697.8928
12.000000000000018	90.0	692.0466
10.999999999999993	90.0	686.4441
10.000000000000012	90.0	681.1765
8.999999999999984	90.0	676.3349
7.999999999999981	90.0	672.0073
7.000000000000025	90.0	668.2751
6.000000000000026	90.0	665.2097
4.999999999999992	90.0	662.8699
4.000000000000042	90.0	661.2995
3.0000000000000444	90.0	660.525
1.9999999999999472	90.0	660.5543
0.9999999999999002	90.0	661.3762
0.0	90.0	662.9604
0.9999999999999002	270.0	665.2585
1.9999999999999472	270.0	668.2052
3.0000000000000444	270.0	671.7213
4.000000000000042	270.0	675.7158
4.999999999999992	270.0	680.0903
6.000000000000026	270.0	684.742
6.9999999999999725	270.0	689.5683
7.999999999999981	270.0	694.4708
8.999999999999984	270.0	699.3591
10.000000000000012	270.0	704.1547
10.999999999999993	270.0	708.7943
11.999999999999988	270.0	713.2322
12.999999999999996	270.0	717.4427
14.0	270.0	721.4208
14.999999999999996	270.0	725.1827
15.999999999999995	270.0	728.7652
16.99999999999999	270.0	732.2239
17.999999999999986	270.0	735.6313
18.999999999999996	270.0	739.0734
19.999999999999993	270.0	742.6461
21.0	270.0	746.4511
21.999999999999996	270.0	750.5913
23.00000000000001	270.0	755.1664
24.000000000000004	270.0	760.2686
24.99999999999999	270.0	765.9779
26.000000000000007	270.0	772.3587
26.999999999999996	270.0	779.4568
28.000000000000007	270.0	787.2968
28.999999999999996	270.0	795.8807
29.999999999999993	270.0	805.1876
31.0	270.0	815.1735
31.99999999999999	270.0	825.7737
33.0	270.0	836.9039
34.0	270.0	848.4643
35.000000000000014	270.0	860.3429
36.0	270.0	872.4197
37.000000000000014	270.0	884.5717
37.99999999999999	270.0	896.6772
38.99999999999999	270.0	908.621
40.00000000000001	270.0	920.2982
40.999999999999986	270.0	931.6185
42.0	270.0	942.5093
43.0	270.0	952.9181
44.00000000000001	270.0	962.8141
45.0	270.0	972.1883
46.000000000000014	270.0	981.0534
47.0	270.0	989.4418
47.999999999999986	270.0	997.4033
49.00000000000001	270.0	1005.0016
49.99999999999999	270.0	1012.31
51.00000000000001	270.0	1019.4068
51.99999999999999	270.0	1026.3701
53.000000000000014	270.0	1033.273
53.99999999999999	270.0	1040.1783
55.000000000000014	270.0	1047.1339
55.99999999999999	270.0	1054.1685
56.999999999999986	270.0	1061.2888
58.00000000000001	270.0	1068.4768
58.99999999999999	270.0	1075.6884
60.00000000000001	270.0	1082.8539
61.0	270.0	1089.8788
62.000000000000014	270.0	1096.6462
63.0	270.0	1103.0205
64.00000000000001	270.0	1108.8521
65.0	270.0	1113.9829
65.99999999999999	270.0	1118.2522
67.0	270.0	1121.5042
68.0	270.0	1123.5938
69.00000000000001	270.0	1124.3944
70.0	270.0	1123.804
71.00000000000001	270.0	1121.7509
72.0	270.0	1118.1988
73.00000000000001	270.0	1113.151
74.0	270.0	1106.6525
74.99999999999999	270.0	1098.7916
76.0	270.0	1089.6991
77.0	270.0	1079.547
78.00000000000001	270.0	1068.5447
79.0	270.0	1056.934
80.00000000000001	270.0	1044.9834
81.0	270.0	1032.9807
82.00000000000001	270.0	1021.2247
83.0	270.0	1010.0165
83.99999999999999	270.0	999.6509
85.0	270.0	990.4067
86.0	270.0	982.5385
87.00000000000001	270.0	976.2684
88.0	270.0	971.7791
89.00000000000001	270.0	969.2075
90.0	270.0	968.6404
91.00000000000001	270.0	970.1111
92.0	270.0	973.5982
92.99999999999999	270.0	979.026
94.0	270.0	986.2658
95.0	270.0	995.1401
96.00000000000001	270.0	1005.4276
97.0	270.0	1016.869
98.00000000000001	270.0	1029.175
99.0	270.0	1042.0347
100.00000000000001	270.0	1055.1239
101.0	270.0	1068.1146
102.00000000000001	270.0	1080.6841
103.0	270.0	1092.5234
104.0	270.0	1103.3456
105.00000000000001	270.0	1112.893
106.0	270.0	1120.9432
107.00000000000001	270.0	1127.314
108.0	270.0	1131.8669
109.00000000000001	270.0	1134.5089
110.0	270.0	1135.1936
111.00000000000001	270.0	1133.9198
112.0	270.0	1130.7297
113.0	270.0	1125.705
114.00000000000001	270.0	1118.9631
115.0	270.0	1110.6512
116.00000000000001	270.0	1100.9409
117.0	270.0	1090.0216
118.00000000000001	270.0	1078.0939
119.0	270.0	1065.3639
120.00000000000001	270.0	1052.0364
121.0	270.0	1038.31
122.0	270.0	1024.3719
123.00000000000001	270.0	1010.3937
124.0	270.0	996.5286
125.00000000000001	270.0	982.9087
126.0	270.0	969.644
127.00000000000001	270.0	956.822
128.0	270.0	944.5076
129.00000000000003	270.0	932.7452
130.0	270.0	921.5594
131.0	270.0	910.9583
132.0	270.0	900.9356
133.0	270.0	891.4733
134.0	270.0	882.5451
135.0	270.0	874.1186
136.0	270.0	866.158
137.0	270.0	858.6264
138.00000000000003	270.0	851.4874
139.0	270.0	844.7065
140.0	270.0	838.252
140.99999999999997	270.0	832.0953
142.00000000000003	270.0	826.2108
143.0	270.0	820.5755
144.0	270.0	815.1686
145.0	270.0	809.9702
146.00000000000003	270.0	804.9604
147.00000000000003	270.0	800.1184
148.0	270.0	795.4216
149.0	270.0	790.845
149.99999999999997	270.0	786.3605
151.00000000000003	270.0	781.9371
152.0	270.0	777.5411
153.0	270.0	773.1367
154.0	270.0	768.6871
155.00000000000003	270.0	764.1557
156.00000000000003	270.0	759.5081
157.0	270.0	754.7133
158.0	270.0	749.7461
158.99999999999997	270.0	744.5886
160.00000000000003	270.0	739.2322
161.0	270.0	733.6792
162.0	270.0	727.9433
163.0	270.0	722.0512
164.00000000000003	270.0	716.0423
165.00000000000003	270.0	709.9688
166.0	270.0	703.8943
167.0	270.0	697.8928
167.99999999999997	270.0	692.0466
169.00000000000003	270.0	686.4441
169.99999999999997	270.0	681.1765
170.99999999999997	270.0	676.3349
172.0	270.0	672.0073
173.00000000000003	270.0	668.2751
174.00000000000003	270.0	665.2097
175.0	270.0	662.8699
175.99999999999997	270.0	661.2995
176.99999999999994	270.0	660.525
178.00000000000006	270.0	660.5543
179.0000000000001	270.0	661.3762
180.0	270.0	662.9604
179.0000000000001	90.0	665.2585
178.00000000000006	90.0	668.2052
176.99999999999994	90.0	671.7213
176.00000000000006	90.0	675.7158
175.0	90.0	680.0903
174.00000000000003	90.0	684.742
172.99999999999997	90.0	689.5683
172.0	90.0	694.4708
171.00000000000003	90.0	699.3591
170.00000000000003	90.0	704.1547
168.99999999999997	90.0	708.7943
167.99999999999997	90.0	713.2322
167.00000000000003	90.0	717.4427
166.00000000000003	90.0	721.4208
165.00000000000003	90.0	725.1827
163.99999999999997	90.0	728.7652
163.0	90.0	732.2239
162.00000000000003	90.0	735.6313
161.00000000000003	90.0	739.0734
160.0	90.0	742.6461
159.0	90.0	746.4511
158.00000000000003	90.0	750.5913
157.00000000000003	90.0	755.1664
156.00000000000003	90.0	760.2686
154.99999999999997	90.0	765.9779
154.0	90.0	772.3587
153.00000000000003	90.0	779.4568
152.0	90.0	787.2968
150.99999999999997	90.0	795.8807
150.0	90.0	805.1876
149.0	90.0	815.1735
148.0	90.0	825.7737
147.00000000000003	90.0	836.9039
146.0	90.0	848.4643
145.0	90.0	860.3429
144.00000000000003	90.0	872.4197
143.0	90.0	884.5717
142.0	90.0	896.6772
140.99999999999997	90.0	908.621
140.00000000000003	90.0	920.2982
139.00000000000003	90.0	931.6185
138.00000000000003	90.0	942.5093
137.0	90.0	952.9181
136.0	90.0	962.8141
135.00000000000003	90.0	972.1883
134.00000000000003	90.0	981.0534
132.99999999999997	90.0	989.4418
131.99999999999997	90.0	997.4033
131.00000000000003	90.0	1005.0016
130.00000000000003	90.0	1012.31
129.00000000000003	90.0	1019.4068
128.0	90.0	1026.3701
126.99999999999999	90.0	1033.273
126.00000000000003	90.0	1040.1783
125.00000000000004	90.0	1047.1339
123.99999999999997	90.0	1054.1685
122.99999999999999	90.0	1061.2888
122.0	90.0	1068.4768
121.0	90.0	1075.6884
120.00000000000001	90.0	1082.8539
119.0	90.0	1089.8788
118.00000000000001	90.0	1096.6462
117.00000000000003	90.0	1103.0205
116.00000000000004	90.0	1108.8521
115.0	90.0	1113.9829
114.00000000000001	90.0	1118.2522
113.00000000000001	90.0	1121.5042
112.00000000000003	90.0	1123.5938
111.00000000000004	90.0	1124.3944
110.0	90.0	1123.804
109.00000000000001	90.0	1121.7509
108.00000000000003	90.0	1118.1988
107.00000000000004	90.0	1113.151
106.0	90.0	1106.6525
105.0	90.0	1098.7916
104.00000000000001	90.0	1089.6991
103.00000000000001	90.0	1079.547
102.00000000000003	90.0	1068.5447
100.99999999999999	90.0	1056.934
100.0	90.0	1044.9834
99.00000000000001	90.0	1032.9807
98.00000000000003	90.0	1021.2247
96.99999999999999	90.0	1010.0165
96.0	90.0	999.6509
95.0	90.0	990.4067
94.00000000000001	90.0	982.5385
93.00000000000003	90.0	976.2684
91.99999999999999	90.0	971.7791
91.0	90.0	969.2075
90.0	45.0	944.1403
89.0	45.0	945.3618
88.0	45.0	947.9703
87.00000000000001	45.0	951.8714
86.0	45.0	956.9437
85.0	45.0	963.0417
84.0	45.0	969.9993
83.0	45.0	977.6333
82.0	45.0	985.7477
81.0	45.0	994.1375
80.0	45.0	1002.5937
79.0	45.0	1010.9073
78.00000000000001	45.0	1018.8739
77.0	45.0	1026.2974
76.0	45.0	1032.9943
75.0	45.0	1038.797
74.0	45.0	1043.5567
73.0	45.0	1047.1459
72.0	45.0	1049.4608
71.0	45.0	1050.422
70.0	45.0	1049.9759
69.00000000000001	45.0	1048.0947
68.0	45.0	1044.7759
67.0	45.0	1040.0417
66.0	45.0	1033.9371
65.0	45.0	1026.5288
64.0	45.0	1017.902
63.0	45.0	1008.1586
62.0	45.0	997.4139
61.0	45.0	985.7939
60.00000000000001	45.0	973.4319
59.00000000000001	45.0	960.4656
58.00000000000001	45.0	947.0337
57.00000000000001	45.0	933.2735
55.99999999999999	45.0	919.3176
55.00000000000001	45.0	905.2918
54.0	45.0	891.3127
53.00000000000001	45.0	877.4859
52.0	45.0	863.9045
51.00000000000001	45.0	850.6483
50.00000000000001	45.0	837.7825
49.00000000000001	45.0	825.3582
48.0	45.0	813.4121
47.0	45.0	801.9673
46.00000000000001	45.0	791.0338
45.0	45.0	780.6101
44.0	45.0	770.6847
43.0	45.0	761.2373
42.0	45.0	752.2413
41.0	45.0	743.6656
40.00000000000001	45.0	735.4762
39.0	45.0	727.6389
37.99999999999999	45.0	720.121
37.0	45.0	712.8927
36.0	45.0	705.9295
35.0	45.0	699.213
34.0	45.0	692.7324
33.0	45.0	686.485
31.99999999999999	45.0	680.4768
31.0	45.0	674.7228
30.000000000000004	45.0	669.2465
29.00000000000001	45.0	664.0794
28.000000000000007	45.0	659.2599
27.00000000000001	45.0	654.8323
25.999999999999996	45.0	650.8449
25.000000000000004	45.0	647.3485
24.000000000000004	45.0	644.3942
22.999999999999993	45.0	642.0313
21.999999999999996	45.0	640.3052
21.0	45.0	639.2552
20.00000000000001	45.0	638.9121
19.000000000000014	45.0	639.2968
18.00000000000001	45.0	640.4182
17.000000000000007	45.0	642.2716
15.999999999999995	45.0	644.8381
14.999999999999996	45.0	648.0832
14.0	45.0	651.9571
12.999999999999996	45.0	656.3944
12.000000000000018	45.0	661.315
10.999999999999993	45.0	666.625
10.000000000000012	45.0	672.2186
8.999999999999984	45.0	677.9792
7.999999999999981	45.0	683.7829
7.000000000000025	45.0	689.5003
6.000000000000026	45.0	694.9997
4.999999999999992	45.0	700.1503
4.000000000000042	45.0	704.8255
3.0000000000000444	45.0	708.9057
1.9999999999999472	45.0	712.282
0.9999999999999002	45.0	714.8588
0.0	45.0	716.5568
0.9999999999999002	225.0	717.3152
1.9999999999999472	225.0	717.0936
3.0000000000000444	225.0	715.8738
4.000000000000042	225.0	713.6605
4.999999999999992	225.0	710.4817
6.000000000000026	225.0	706.3887
6.9999999999999725	225.0	701.4552
7.999999999999981	225.0	695.7759
8.999999999999984	225.0	689.4649
10.000000000000012	225.0	682.6529
10.999999999999993	225.0	675.485
11.999999999999988	225.0	668.1168
12.999999999999996	225.0	660.712
14.0	225.0	653.4378
14.999999999999996	225.0	646.4621
15.999999999999995	225.0	639.9494
16.99999999999999	225.0	634.0577
17.999999999999986	225.0	628.9352
18.999999999999996	225.0	624.717
19.999999999999993	225.0	621.5232
21.0	225.0	619.4565
21.999999999999996	225.0	618.6007
23.00000000000001	225.0	619.0196
24.000000000000004	225.0	620.7567
24.99999999999999	225.0	623.835
26.000000000000007	225.0	628.258
26.999999999999996	225.0	634.0102
28.000000000000007	225.0	641.059
28.999999999999996	225.0	649.3563
29.999999999999993	225.0	658.8409
31.0	225.0	669.4405
31.99999999999999	225.0	681.074
33.0	225.0	693.6545
34.0	225.0	707.0912
35.000000000000014	225.0	721.2915
36.0	225.0	736.1633
37.000000000000014	225.0	751.6167
37.99999999999999	225.0	767.5649
38.99999999999999	225.0	783.9255
40.00000000000001	225.0	800.6212
40.999999999999986	225.0	817.5795
42.0	225.0	834.7327
43.0	225.0	852.0178
44.00000000000001	225.0	869.3747
45.0	225.0	886.746
46.000000000000014	225.0	904.0752
47.0	225.0	921.3055
47.999999999999986	225.0	938.3785
49.00000000000001	225.0	955.2325
49.99999999999999	225.0	971.802
51.00000000000001	225.0	988.0163
51.99999999999999	225.0	1003.7987
53.000000000000014	225.0	1019.067
53.99999999999999	225.0	1033.7326
55.000000000000014	225.0	1047.7017
55.99999999999999	225.0	1060.8762
56.999999999999986	225.0	1073.1548
58.00000000000001	225.0	1084.4348
58.99999999999999	225.0	1094.6145
60.00000000000001	225.0	1103.5954
61.0	225.0	1111.2848
62.000000000000014	225.0	1117.5986
63.0	225.0	1122.4644
64.00000000000001	225.0	1125.8237
65.0	225.0	1127.6351
65.99999999999999	225.0	1127.8763
67.0	225.0	1126.5463
68.0	225.0	1123.6669
69.00000000000001	225.0	1119.2838
70.0	225.0	1113.4673
71.00000000000001	225.0	1106.312
72.0	225.0	1097.9362
73.00000000000001	225.0	1088.4806
74.0	225.0	1078.1063
74.99999999999999	225.0	1066.9923
76.0	225.0	1055.3325
77.0	225.0	1043.3316
78.00000000000001	225.0	1031.202
79.0	225.0	1019.159
80.00000000000001	225.0	1007.4164
81.0	225.0	996.1824
82.00000000000001	225.0	985.6546
83.0	225.0	976.0162
83.99999999999999	225.0	967.4319
85.0	225.0	960.0441
86.0	225.0	953.9699
87.00000000000001	225.0	949.2986
88.0	225.0	946.0896
89.00000000000001	225.0	944.3713
90.0	225.0	944.1403
91.00000000000001	225.0	945.3618
92.0	225.0	947.9703
92.99999999999999	225.0	951.8714
94.0	225.0	956.9437
95.0	225.0	963.0417
96.00000000000001	225.0	969.9993
97.0	225.0	977.6333
98.00000000000001	225.0	985.7477
99.0	225.0	994.1375
100.00000000000001	225.0	1002.5937
101.0	225.0	1010.9073
102.00000000000001	225.0	1018.8739
103.0	225.0	1026.2974
104.0	225.0	1032.9943
105.00000000000001	225.0	1038.797
106.0	225.0	1043.5567
107.00000000000001	225.0	1047.1459
108.0	225.0	1049.4608
109.00000000000001	225.0	1050.422
110.0	225.0	1049.9759
111.00000000000001	225.0	1048.0947
112.0	225.0	1044.7759
113.0	225.0	1040.0417
114.00000000000001	225.0	1033.9371
115.0	225.0	1026.5288
116.00000000000001	225.0	1017.902
117.0	225.0	1008.1586
118.00000000000001	225.0	997.4139
119.0	225.0	985.7939
120.00000000000001	225.0	973.4319
121.0	225.0	960.4656
122.0	225.0	947.0337
123.00000000000001	225.0	933.2735
124.0	225.0	919.3176
125.00000000000001	225.0	905.2918
126.0	225.0	891.3127
127.00000000000001	225.0	877.4859
128.0	225.0	863.9045
129.00000000000003	225.0	850.6483
130.0	225.0	837.7825
131.0	225.0	825.3582
132.0	225.0	813.4121
133.0	225.0	801.9673
134.0	225.0	791.0338
135.0	225.0	780.6101
136.0	225.0	770.6847
137.0	225.0	761.2373
138.00000000000003	225.0	752.2413
139.0	225.0	743.6656
140.0	225.0	735.4762
140.99999999999997	225.0	727.6389
142.00000000000003	225.0	720.121
143.0	225.0	712.8927
144.0	225.0	705.9295
145.0	225.0	699.213
146.00000000000003	225.0	692.7324
147.00000000000003	225.0	686.485
148.0	225.0	680.4768
149.0	225.0	674.7228
149.99999999999997	225.0	669.2465
151.00000000000003	225.0	664.0794
152.0	225.0	659.2599
153.0	225.0	654.8323
154.0	225.0	650.8449
155.00000000000003	225.0	647.3485
156.00000000000003	225.0	644.3942
157.0	225.0	642.0313
158.0	225.0	640.3052
158.99999999999997	225.0	639.2552
160.00000000000003	225.0	638.9121
161.0	225.0	639.2968
162.0	225.0	640.4182
163.0	225.0	642.2716
164.00000000000003	225.0	644.8381
165.00000000000003	225.0	648.0832
166.0	225.0	651.9571
167.0	225.0	656.3944
167.99999999999997	225.0	661.315
169.00000000000003	225.0	666.625
169.99999999999997	225.0	672.2186
170.99999999999997	225.0	677.9792
172.0	225.0	683.7829
173.00000000000003	225.0	689.5003
174.00000000000003	225.0	694.9997
175.0	225.0	700.1503
175.99999999999997	225.0	704.8255
176.99999999999994	225.0	708.9057
178.00000000000006	225.0	712.282
179.0000000000001	225.0	714.8588
180.0	225.0	716.5568
179.0000000000001	45.0	717.3152
178.00000000000006	45.0	717.0936
176.99999999999994	45.0	715.8738
176.00000000000006	45.0	713.6605
175.0	45.0	710.4817
174.00000000000003	45.0	706.3887
172.99999999999997	45.0	701.4552
172.0	45.0	695.7759
171.00000000000003	45.0	689.4649
170.00000000000003	45.0	682.6529
168.99999999999997	45.0	675.485
167.99999999999997	45.0	668.1168
167.00000000000003	45.0	660.712
166.00000000000003	45.0	653.4378
165.00000000000003	45.0	646.4621
163.99999999999997	45.0	639.9494
163.0	45.0	634.0577
162.00000000000003	45.0	628.9352
161.00000000000003	45.0	624.717
160.0	45.0	621.5232
159.0	45.0	619.4565
158.00000000000003	45.0	618.6007
157.00000000000003	45.0	619.0196
156.00000000000003	45.0	620.7567
154.99999999999997	45.0	623.835
154.0	45.0	628.258
153.00000000000003	45.0	634.0102
152.0	45.0	641.059
150.99999999999997	45.0	649.3563
150.0	45.0	658.8409
149.0	45.0	669.4405
148.0	45.0	681.074
147.00000000000003	45.0	693.6545
146.0	45.0	707.0912
145.0	45.0	721.2915
144.00000000000003	45.0	736.1633
143.0	45.0	751.6167
142.0	45.0	767.5649
140.99999999999997	45.0	783.9255
140.00000000000003	45.0	800.6212
139.00000000000003	45.0	817.5795
138.00000000000003	45.0	834.7327
137.0	45.0	852.0178
136.0	45.0	869.3747
135.00000000000003	45.0	886.746
134.00000000000003	45.0	904.0752
132.99999999999997	45.0	921.3055
131.99999999999997	45.0	938.3785
131.00000000000003	45.0	955.2325
130.00000000000003	45.0	971.802
129.00000000000003	45.0	988.0163
128.0	45.0	1003.7987
126.99999999999999	45.0	1019.067
126.00000000000003	45.0	1033.7326
125.00000000000004	45.0	1047.7017
123.99999999999997	45.0	1060.8762
122.99999999999999	45.0	1073.1548
122.0	45.0	1084.4348
121.0	45.0	1094.6145
120.00000000000001	45.0	1103.5954
119.0	45.0	1111.2848
118.00000000000001	45.0	1117.5986
117.00000000000003	45.0	1122.4644
116.00000000000004	45.0	1125.8237
115.0	45.0	1127.6351
114.00000000000001	45.0	1127.8763
113.00000000000001	45.0	1126.5463
112.00000000000003	45.0	1123.6669
111.00000000000004	45.0	1119.2838
110.0	45.0	1113.4673
109.00000000000001	45.0	1106.312
108.00000000000003	45.0	1097.9362
107.00000000000004	45.0	1088.4806
106.0	45.0	1078.1063
105.0	45.0	1066.9923
104.00000000000001	45.0	1055.3325
103.00000000000001	45.0	1043.3316
102.00000000000003	45.0	1031.202
100.99999999999999	45.0	1019.159
100.0	45.0	1007.4164
99.00000000000001	45.0	996.1824
98.00000000000003	45.0	985.6546
96.99999999999999	45.0	976.0162
96.0	45.0	967.4319
95.0	45.0	960.0441
94.00000000000001	45.0	953.9699
93.00000000000003	45.0	949.2986
91.99999999999999	45.0	946.0896
91.0	45.0	944.3713
90.0	0.0	836.8328
89.29291116952395	0.7071426817872533	830.2617
88.58593006627854	1.4145007934175506	826.6396
87.87916453235917	2.122289895867879	826.1171
87.1727226397129	2.8307258121018455	828.7304
86.4667128053692	3.540024757356371	834.3995
85.76124390703504	4.250403468570711	842.9308
85.05642539917308	4.962079332655645	854.023
84.3523674296794	5.675270513286652	867.2783
83.64918095727445	6.390196075887154	882.2163
82.94697786971682	7.107076110446535	898.2913
82.24587110294536	7.826131851792348	914.9124
81.54597476125012	8.547585796906942	931.4647
80.84740423856572	9.271661818845425	947.3327
80.15027634097487	9.998585276774412	961.9228
79.45470941050044	10.728583121609057	974.6861
78.76082345025607	11.461883996679509	985.139
78.0687402510143	12.198718332806749	992.8823
77.37858351923944	12.939318437111838	997.6175
76.69047900661849	13.683918574821595	999.1589
76.00455464110858	14.432755043267381	997.4429
75.32094065950206	15.186066237202516	992.5323
74.63976974149092	15.944092704486447	984.6165
73.96117714519126	16.707077191101824	974.0074
73.28530084406378	17.47526467438212	961.1305
72.61228166514054	18.2489023832344	946.5128
71.94226342843773	19.028239804042187	930.7662
71.27539308740191	19.813528670829413	914.5684
70.61182087020094	20.605022938156644	898.6411
69.95170042163069	21.402978735106455	883.7266
69.29518894536457	22.207654298596484	870.5634
68.64244734622547	23.019309884136224	859.8615
67.99364037210603	23.838207652018653	852.2787
67.34893675510656	24.664611526811417	848.3982
66.70850935139694	25.498787027884514	848.7084
66.07253527924108	26.34100106858589	853.5851
65.44119605454999	27.191521721553002	863.2784
64.81467772324949	28.05061794753063	877.9016
64.19317098966519	28.918559284955432	897.426
63.57687134003648	29.79561549746857	921.6791
62.965979160175145	30.68205617643342	950.3471
62.36069984618289	31.5781502954692	982.9824
61.761243907035045	32.484165713968785	1019.014
61.16782705772538	33.400368626554155	1057.7629
60.58067030155157	34.32702295544232	1098.4595
59.99999999999999	35.264389682754654	1140.264
59.42604792856702	36.212726119908915	1182.2894
58.8590513167294	37.17228511139536	1223.6242
58.29925287015328	38.143314170462425	1263.3572
57.74690077310915	39.12605454453247	1300.6013
57.20224866894282	40.12074020854298	1334.5165
56.66555561634145	41.12759678487194	1364.3312
56.13708601903233	42.14684038906587	1389.3616
55.61710952646371	43.178676401255004	1409.0281
55.10590090294487	44.223298163918535	1422.8691
54.60373986267208	45.28088560756104	1430.5505
54.11091086804023	46.3516038068849	1431.8722
53.62770288864506	47.435601471194154	1426.7711
53.154409118419395	48.53300937404573	1415.3195
52.691326648427214	49.643938728569864	1397.7206
52.23875609296496	50.76847951640774	1374.3006
51.79700116679687	51.90669877984987	1345.4976
51.36636821158484	53.05863888848747	1311.848
50.94716566986906	54.22431579349069	1273.9708
50.539703505316	55.40371728447302	1232.5502
50.14429256838126	56.59680126575802	1188.3172
49.76124390703504	57.80349407069134	1142.0309
49.390868022772075	59.02368883439022	1094.4589
49.03347407277117	60.25724394694163	1046.3596
48.68936901978189	61.503981610489745	998.4646
48.35885673209022	62.76368652482927	951.4624
48.04223703674405	64.03610472697835	905.985
47.73980473009234	65.32094261067617	862.5951
47.45184855059514	66.61786615176922	821.7774
47.178650119779434	67.92650036495783	783.9307
46.920482858129056	69.2464290163152	749.3639
46.677610883583455	70.57719461432482	718.2936
46.450287901158305	71.91829869987819	690.8455
46.23875609296496	73.2692024527246	667.0564
46.043245018569806	74.62932762827676	646.8805
45.86397053617525	75.99805783448308	630.1956
45.701133755495384	77.37474015373697	616.8127
45.554920033420714	78.7586871095844	606.486
45.42549802359849	80.14917897242118	598.9241
45.31301879088406	81.5454663925662	593.8022
45.21761500123496	82.94677334320139	590.7745
45.1394001970194	84.35230034984485	589.4868
45.07846816689916	85.76122797743554	589.5882
45.03489241843145	87.17272054092642	590.7431
45.00872576033472	88.58593000067151	592.6414
45.0	90.0	595.0087
45.00872576033472	91.41406999932849	597.6138
45.03489241843145	92.82727945907358	600.2758
45.07846816689916	94.23877202256445	602.8689
45.1394001970194	95.64769965015516	605.3256
45.21761500123496	97.05322665679864	607.6384
45.31301879088406	98.45453360743382	609.859
45.42549802359848	99.85082102757882	612.0961
45.554920033420714	101.2413128904156	614.5115
45.701133755495384	102.62525984626303	617.3142
45.86397053617525	104.00194216551692	620.7533
46.043245018569806	105.37067237172324	625.1094
46.238756092964955	106.73079754727539	630.685
46.450287901158305	108.08170130012182	637.7934
46.677610883583455	109.42280538567519	646.7479
46.920482858129056	110.7535709836848	657.8502
47.178650119779434	112.07349963504215	671.378
47.45184855059512	113.38213384823077	687.5746
47.73980473009234	114.67905738932384	706.637
48.04223703674405	115.96389527302166	728.7066
48.3588567320902	117.23631347517073	753.8601
48.68936901978189	118.49601838951025	782.102
49.03347407277117	119.74275605305839	813.3596
49.39086802277208	120.9763111656098	847.4786
49.76124390703504	122.19650592930867	884.2219
50.14429256838125	123.40319873424197	923.2707
50.539703505316005	124.59628271552698	964.2271
50.94716566986905	125.77568420650928	1006.62
51.36636821158484	126.94136111151253	1049.9125
51.79700116679685	128.09330122015012	1093.5124
52.23875609296496	129.23152048359225	1136.784
52.691326648427214	130.35606127143015	1179.0617
53.154409118419395	131.46699062595425	1219.6655
53.62770288864506	132.56439852880584	1257.9173
54.11091086804023	133.64839619311508	1293.1578
54.60373986267208	134.71911439243897	1324.7635
55.10590090294487	135.7767018360815	1352.1636
55.617109526463715	136.821323598745	1374.8562
56.13708601903233	137.8531596109341	1392.4227
56.66555561634144	138.87240321512806	1404.5412
57.20224866894282	139.879259791457	1410.9969
57.74690077310915	140.87394545546752	1411.6901
58.29925287015328	141.85668582953758	1406.6419
58.8590513167294	142.82771488860465	1395.9959
59.42604792856702	143.7872738800911	1380.0169
59.99999999999999	144.73561031724535	1359.0863
60.58067030155157	145.6729770445577	1333.6941
61.16782705772538	146.59963137344585	1304.4274
61.76124390703503	147.5158342860312	1271.9565
62.36069984618289	148.4218497045308	1237.0181
62.96597916017513	149.31794382356657	1200.3961
63.57687134003648	150.20438450253144	1162.9015
64.19317098966519	151.08144071504458	1125.3508
64.81467772324949	151.9493820524694	1088.5438
65.44119605454999	152.808478278447	1053.2422
66.0725352792411	153.65899893141415	1020.1491
66.70850935139694	154.5012129721155	989.8896
67.34893675510656	155.3353884731886	962.9942
67.99364037210603	156.16179234798136	939.8849
68.64244734622547	156.98069011586378	920.8642
69.29518894536457	157.79234570140352	906.1078
69.95170042163069	158.59702126489356	895.6618
70.61182087020094	159.39497706184335	889.443
71.2753930874019	160.1864713291706	887.244
71.94226342843773	160.9717601959578	888.7415
72.61228166514054	161.7510976167656	893.509
73.28530084406377	162.52473532561788	901.0322
73.96117714519126	163.29292280889817	910.7271
74.63976974149092	164.05590729551355	921.9606
75.32094065950206	164.8139337627975	934.0726
76.00455464110858	165.56724495673262	946.3983
76.6904790066185	166.31608142517842	958.2914
77.37858351923944	167.06068156288816	969.1453
78.0687402510143	167.80128166719328	978.414
78.76082345025605	168.5381160033205	985.63
79.45470941050044	169.27141687839094	990.4198
80.15027634097487	170.0014147232256	992.5154
80.84740423856572	170.72833818115458	991.763
81.54597476125012	171.45241420309307	988.1267
82.24587110294536	172.17386814820765	981.6884
82.94697786971682	172.8929238895535	972.6435
83.64918095727445	173.60980392411287	961.2929
84.3523674296794	174.32472948671335	948.0302
85.05642539917308	175.03792066734437	933.3269
85.76124390703502	175.7495965314293	917.7137
86.4667128053692	176.45997524264365	901.7606
87.17272263971289	177.16927418789817	886.055
87.87916453235917	177.87771010413212	871.1796
88.58593006627854	178.58549920658245	857.6902
89.29291116952395	179.29285731821275	846.0944
90.0	180.0	836.8328
90.70708883047607	180.70714268178725	830.2617
91.41406993372146	181.41450079341755	826.6396
92.12083546764083	182.12228989586788	826.1171
92.82727736028711	182.83072581210183	828.7304
93.5332871946308	183.54002475735635	834.3995
94.23875609296496	184.2504034685707	842.9308
94.94357460082692	184.96207933265563	854.023
95.64763257032061	185.67527051328665	867.2783
96.35081904272555	186.39019607588713	882.2163
97.05302213028318	187.1070761104465	898.2913
97.75412889705464	187.82613185179233	914.9124
98.45402523874989	188.54758579690696	931.4647
99.15259576143428	189.27166181884542	947.3327
99.84972365902512	189.9985852767744	961.9228
100.54529058949956	190.72858312160906	974.6861
101.23917654974393	191.4618839966795	985.139
101.93125974898571	192.19871833280675	992.8823
102.62141648076054	192.93931843711184	997.6175
103.30952099338153	193.68391857482158	999.1589
103.99544535889142	194.43275504326738	997.4429
104.67905934049796	195.18606623720254	992.5323
105.36023025850908	195.94409270448645	984.6165
106.03882285480874	196.7070771911018	974.0074
106.71469915593623	197.4752646743821	961.1305
107.38771833485946	198.2489023832344	946.5128
108.05773657156229	199.0282398040422	930.7662
108.7246069125981	199.8135286708294	914.5684
109.38817912979906	200.60502293815665	898.6411
110.04829957836931	201.40297873510644	883.7266
110.70481105463544	202.20765429859648	870.5634
111.35755265377453	203.01930988413622	859.8615
112.00635962789397	203.83820765201864	852.2787
112.65106324489344	204.6646115268114	848.3982
113.29149064860306	205.49878702788448	848.7084
113.92746472075892	206.34100106858588	853.5851
114.55880394545001	207.191521721553	863.2784
115.18532227675053	208.05061794753064	877.9016
115.8068290103348	208.91855928495542	897.426
116.42312865996352	209.79561549746856	921.6791
117.03402083982486	210.68205617643343	950.3471
117.63930015381712	211.5781502954692	982.9824
118.23875609296496	212.48416571396876	1019.014
118.83217294227461	213.40036862655413	1057.7629
119.41932969844842	214.32702295544232	1098.4595
120.00000000000001	215.26438968275463	1140.264
120.573952071433	216.2127261199089	1182.2894
121.14094868327061	217.17228511139535	1223.6242
121.70074712984672	218.14331417046245	1263.3572
122.25309922689084	219.12605454453248	1300.6013
122.79775133105717	220.12074020854297	1334.5165
123.33444438365854	221.1275967848719	1364.3312
123.86291398096766	222.1468403890659	1389.3616
124.38289047353629	223.17867640125502	1409.0281
124.89409909705513	224.2232981639185	1422.8691
125.39626013732791	225.28088560756103	1430.5505
125.88908913195978	226.35160380688492	1431.8722
126.37229711135494	227.43560147119416	1426.7711
126.84559088158062	228.53300937404572	1415.3195
127.30867335157278	229.64393872856982	1397.7206
127.76124390703504	230.7684795164077	1374.3006
128.20299883320317	231.90669877984988	1345.4976
128.6336317884152	233.05863888848748	1311.848
129.05283433013093	234.2243157934907	1273.9708
129.460296494684	235.40371728447298	1232.5502
129.85570743161875	236.59680126575802	1188.3172
130.23875609296496	237.80349407069136	1142.0309
130.60913197722795	239.0236888343902	1094.4589
130.96652592722884	240.25724394694157	1046.3596
131.31063098021812	241.50398161048972	998.4646
131.6411432679098	242.7636865248293	951.4624
131.95776296325596	244.03610472697835	905.985
132.26019526990768	245.32094261067616	862.5951
132.54815144940486	246.6178661517692	821.7774
132.8213498802206	247.92650036495786	783.9307
133.07951714187095	249.2464290163152	749.3639
133.32238911641656	250.5771946143248	718.2936
133.5497120988417	251.91829869987816	690.8455
133.76124390703504	253.26920245272458	667.0564
133.9567549814302	254.62932762827677	646.8805
134.13602946382477	255.99805783448306	630.1956
134.2988662445046	257.374740153737	616.8127
134.44507996657927	258.75868710958434	606.486
134.57450197640154	260.14917897242117	598.9241
134.68698120911597	261.5454663925662	593.8022
134.78238499876502	262.94677334320136	590.7745
134.8605998029806	264.3523003498448	589.4868
134.92153183310086	265.7612279774355	589.5882
134.96510758156856	267.17272054092643	590.7431
134.99127423966527	268.5859300006715	592.6414
135.0	270.0	595.0087
134.99127423966527	271.4140699993285	597.6138
134.96510758156856	272.82727945907357	600.2758
134.92153183310086	274.2387720225645	602.8689
134.8605998029806	275.6476996501551	605.3256
134.78238499876502	277.0532266567986	607.6384
134.68698120911597	278.45453360743375	609.859
134.57450197640154	279.85082102757883	612.0961
134.44507996657927	281.2413128904156	614.5115
134.2988662445046	282.625259846263	617.3142
134.13602946382477	284.0019421655169	620.7533
133.9567549814302	285.37067237172323	625.1094
133.76124390703504	286.7307975472754	630.685
133.5497120988417	288.08170130012184	637.7934
133.32238911641656	289.42280538567513	646.7479
133.07951714187095	290.75357098368477	657.8502
132.82134988022057	292.0734996350422	671.378
132.54815144940488	293.38213384823075	687.5746
132.26019526990768	294.6790573893238	706.637
131.95776296325596	295.9638952730216	728.7066
131.6411432679098	297.23631347517073	753.8601
131.31063098021812	298.49601838951025	782.102
130.96652592722884	299.7427560530584	813.3596
130.60913197722795	300.9763111656098	847.4786
130.23875609296496	302.1965059293086	884.2219
129.85570743161873	303.403198734242	923.2707
129.46029649468403	304.59628271552697	964.2271
129.05283433013096	305.7756842065093	1006.62
128.6336317884152	306.9413611115125	1049.9125
128.20299883320317	308.0933012201501	1093.5124
127.76124390703505	309.23152048359225	1136.784
127.3086733515728	310.3560612714301	1179.0617
126.84559088158062	311.4669906259543	1219.6655
126.37229711135495	312.5643985288058	1257.9173
125.88908913195978	313.6483961931151	1293.1578
125.39626013732794	314.71911439243894	1324.7635
124.89409909705515	315.77670183608143	1352.1636
124.38289047353632	316.821323598745	1374.8562
123.86291398096766	317.85315961093414	1392.4227
123.33444438365856	318.8724032151281	1404.5412
122.7977513310572	319.879259791457	1410.9969
122.25309922689087	320.8739454554675	1411.6901
121.70074712984675	321.8566858295375	1406.6419
121.14094868327061	322.82771488860465	1395.9959
120.57395207143298	323.7872738800911	1380.0169
120.00000000000001	324.73561031724535	1359.0863
119.41932969844845	325.6729770445577	1333.6941
118.83217294227461	326.59963137344585	1304.4274
118.23875609296496	327.51583428603124	1271.9565
117.63930015381712	328.4218497045308	1237.0181
117.03402083982486	329.31794382356657	1200.3961
116.42312865996352	330.2043845025314	1162.9015
115.8068290103348	331.08144071504455	1125.3508
115.18532227675053	331.9493820524694	1088.5438
114.55880394545002	332.808478278447	1053.2422
113.92746472075895	333.6589989314141	1020.1491
113.29149064860304	334.5012129721155	989.8896
112.65106324489344	335.3353884731886	962.9942
112.00635962789399	336.16179234798136	939.8849
111.35755265377455	336.98069011586375	920.8642
110.70481105463546	337.79234570140346	906.1078
110.04829957836931	338.59702126489356	895.6618
109.38817912979906	339.39497706184335	889.443
108.7246069125981	340.18647132917056	887.244
108.05773657156229	340.9717601959578	888.7415
107.38771833485946	341.7510976167656	893.509
106.71469915593623	342.5247353256179	901.0322
106.03882285480876	343.2929228088982	910.7271
105.36023025850909	344.0559072955135	921.9606
104.67905934049797	344.8139337627975	934.0726
103.99544535889142	345.5672449567326	946.3983
103.30952099338151	346.3160814251784	958.2914
102.62141648076056	347.06068156288813	969.1453
101.93125974898572	347.8012816671932	978.414
101.23917654974393	348.5381160033205	985.63
100.54529058949956	349.27141687839094	990.4198
99.84972365902513	350.0014147232256	992.5154
99.15259576143428	350.7283381811546	991.763
98.4540252387499	351.45241420309304	988.1267
97.75412889705464	352.17386814820765	981.6884
97.05302213028318	352.89292388955346	972.6435
96.35081904272556	353.60980392411284	961.2929
95.64763257032062	354.32472948671335	948.0302
94.94357460082692	355.03792066734434	933.3269
94.23875609296496	355.7495965314293	917.7137
93.53328719463082	356.4599752426436	901.7606
92.82727736028713	357.16927418789817	886.055
92.12083546764086	357.8777101041321	871.1796
91.41406993372146	358.5854992065825	857.6902
90.70708883047607	359.2928573182127	846.0944
90.0	90.0	961.9626
89.29291116952395	89.29285731821274	954.9369
88.58593006627854	88.58549920658245	949.3385
87.87916453235917	87.87771010413212	945.2835
87.1727226397129	87.16927418789815	942.8476
86.4667128053692	86.45997524264364	942.0639
85.76124390703504	85.74959653142929	942.9235
85.05642539917308	85.03792066734437	945.3763
84.3523674296794	84.32472948671335	949.334
83.64918095727445	83.60980392411285	954.6731
82.94697786971682	82.89292388955346	961.2401
82.24587110294536	82.17386814820766	968.8566
81.54597476125012	81.45241420309306	977.3254
80.84740423856572	80.72833818115458	986.4368
80.15027634097487	80.0014147232256	995.9751
79.45470941050044	79.27141687839094	1005.7253
78.76082345025607	78.5381160033205	1015.4788
78.0687402510143	77.80128166719327	1025.0392
77.37858351923944	77.06068156288816	1034.2272
76.69047900661849	76.31608142517841	1042.8852
76.00455464110858	75.56724495673262	1050.88
75.32094065950206	74.81393376279749	1058.1056
74.63976974149092	74.05590729551355	1064.4847
73.96117714519126	73.29292280889818	1069.9687
73.28530084406378	72.52473532561788	1074.5378
72.61228166514054	71.7510976167656	1078.1993
71.94226342843773	70.97176019595781	1080.9863
71.27539308740191	70.18647132917059	1082.9543
70.61182087020094	69.39497706184336	1084.1788
69.95170042163069	68.59702126489356	1084.7516
69.29518894536457	67.79234570140352	1084.7774
68.64244734622547	66.98069011586378	1084.3701
67.99364037210603	66.16179234798135	1083.6493
67.34893675510656	65.33538847318859	1082.7366
66.70850935139694	64.50121297211548	1081.7528
66.07253527924108	63.65899893141411	1080.8148
65.44119605454999	62.808478278447	1080.0329
64.81467772324949	61.94938205246937	1079.5089
64.19317098966519	61.081440715044565	1079.3338
63.57687134003648	60.20438450253143	1079.5868
62.965979160175145	59.31794382356658	1080.3336
62.36069984618289	58.4218497045308	1081.6255
61.761243907035045	57.515834286031215	1083.4988
61.16782705772538	56.59963137344585	1085.9741
60.58067030155157	55.67297704455769	1089.0556
59.99999999999999	54.735610317245346	1092.7311
59.42604792856702	53.787273880091085	1096.9712
58.8590513167294	52.827714888604646	1101.7292
58.29925287015328	51.85668582953758	1106.941
57.74690077310915	50.87394545546753	1112.525
57.20224866894282	49.87925979145702	1118.3817
56.66555561634145	48.87240321512806	1124.3944
56.13708601903233	47.85315961093413	1130.4294
55.61710952646371	46.821323598745	1136.337
55.10590090294487	45.776701836081465	1141.9523
54.60373986267208	44.71911439243896	1147.0971
54.11091086804023	43.6483961931151	1151.582
53.62770288864506	42.564398528805846	1155.2091
53.154409118419395	41.46699062595427	1157.7752
52.691326648427214	40.356061271430136	1159.0756
52.23875609296496	39.23152048359226	1158.9088
51.79700116679687	38.09330122015014	1157.0806
51.36636821158484	36.941361111512535	1153.4102
50.94716566986906	35.77568420650932	1147.7352
50.539703505316	34.59628271552699	1139.9172
50.14429256838126	33.40319873424199	1129.8477
49.76124390703504	32.19650592930866	1117.453
49.390868022772075	30.976311165609783	1102.6994
49.03347407277117	29.742756053058372	1085.5977
48.68936901978189	28.496018389510258	1066.2059
48.35885673209022	27.236313475170732	1044.6325
48.04223703674405	25.963895273021652	1021.0372
47.73980473009234	24.679057389323834	995.6312
47.45184855059514	23.382133848230776	968.6753
47.178650119779434	22.07349963504216	940.4775
46.920482858129056	20.753570983684796	911.3885
46.677610883583455	19.422805385675183	881.7957
46.450287901158305	18.08170130012181	852.1162
46.23875609296496	16.730797547275397	822.7886
46.043245018569806	15.370672371723243	794.2637
45.86397053617525	14.001942165516926	766.9942
45.701133755495384	12.625259846263035	741.4248
45.554920033420714	11.241312890415616	717.9808
45.42549802359849	9.850821027578828	697.0579
45.31301879088406	8.454533607433808	679.0124
45.21761500123496	7.053226656798624	664.1513
45.1394001970194	5.647699650155149	652.7245
45.07846816689916	4.238772022564465	644.918
45.03489241843145	2.8272794590735852	640.8483
45.00872576033472	1.414069999328503	640.5593
45.0	4.961562726608714e-15	644.0209
45.00872576033472	358.5859300006715	651.1288
45.03489241843145	357.17272054092643	661.7078
45.07846816689916	355.76122797743557	675.5159
45.1394001970194	354.3523003498448	692.2505
45.21761500123496	352.94677334320136	711.5565
45.31301879088406	351.5454663925662	733.0357
45.42549802359848	350.14917897242117	756.257
45.554920033420714	348.7586871095844	780.768
45.701133755495384	347.374740153737	806.1063
45.86397053617525	345.99805783448306	831.8118
46.043245018569806	344.62932762827677	857.4375
46.238756092964955	343.26920245272464	882.5608
46.450287901158305	341.91829869987816	906.7934
46.677610883583455	340.5771946143248	929.7894
46.920482858129056	339.2464290163152	951.2527
47.178650119779434	337.92650036495786	970.942
47.45184855059512	336.61786615176925	988.6746
47.73980473009234	335.3209426106762	1004.3277
48.04223703674405	334.03610472697835	1017.838
48.3588567320902	332.76368652482927	1029.1998
48.68936901978189	331.50398161048975	1038.4605
49.03347407277117	330.2572439469416	1045.716
49.39086802277208	329.0236888343902	1051.1033
49.76124390703504	327.80349407069133	1054.7933
50.14429256838125	326.596801265758	1056.9824
50.539703505316005	325.40371728447303	1057.8837
50.94716566986905	324.2243157934907	1057.7185
51.36636821158484	323.05863888848745	1056.7082
51.79700116679685	321.9066987798499	1055.0662
52.23875609296496	320.76847951640775	1052.9912
52.691326648427214	319.6439387285699	1050.6617
53.154409118419395	318.5330093740457	1048.2312
53.62770288864506	317.43560147119416	1045.8257
54.11091086804023	316.3516038068849	1043.5416
54.60373986267208	315.28088560756106	1041.4455
55.10590090294487	314.2232981639185	1039.5759
55.617109526463715	313.17867640125496	1037.9454
56.13708601903233	312.14684038906586	1036.5439
56.66555561634144	311.12759678487197	1035.3435
57.20224866894282	310.120740208543	1034.3032
57.74690077310915	309.1260545445325	1033.3741
58.29925287015328	308.1433141704624	1032.5054
58.8590513167294	307.17228511139535	1031.6487
59.42604792856702	306.2127261199089	1030.7638
59.99999999999999	305.26438968275465	1029.8217
60.58067030155157	304.3270229554423	1028.8087
61.16782705772538	303.40036862655415	1027.728
61.76124390703503	302.4841657139688	1026.6012
62.36069984618289	301.5781502954692	1025.4676
62.96597916017513	300.68205617643343	1024.3834
63.57687134003648	299.7956154974686	1023.4194
64.19317098966519	298.91855928495545	1022.657
64.81467772324949	298.0506179475306	1022.1847
65.44119605454999	297.191521721553	1022.0931
66.0725352792411	296.3410010685859	1022.4696
66.70850935139694	295.49878702788453	1023.3931
67.34893675510656	294.6646115268114	1024.9292
67.99364037210603	293.83820765201864	1027.1248
68.64244734622547	293.0193098841362	1030.0044
69.29518894536457	292.2076542985965	1033.5662
69.95170042163069	291.40297873510644	1037.7804
70.61182087020094	290.60502293815665	1042.5876
71.2753930874019	289.81352867082944	1047.8988
71.94226342843773	289.0282398040422	1053.597
72.61228166514054	288.2489023832344	1059.5395
73.28530084406377	287.4752646743821	1065.5617
73.96117714519126	286.7070771911018	1071.4823
74.63976974149092	285.9440927044865	1077.1086
75.32094065950206	285.1860662372025	1082.2431
76.00455464110858	284.4327550432674	1086.6903
76.6904790066185	283.6839185748216	1090.2639
77.37858351923944	282.93931843711187	1092.7938
78.0687402510143	282.1987183328067	1094.1325
78.76082345025605	281.4618839966795	1094.1612
79.45470941050044	280.72858312160906	1092.7948
80.15027634097487	279.9985852767744	1089.9863
80.84740423856572	279.2716618188454	1085.7294
81.54597476125012	278.54758579690696	1080.0596
82.24587110294536	277.82613185179235	1073.055
82.94697786971682	277.10707611044654	1064.8342
83.64918095727445	276.39019607588716	1055.5536
84.3523674296794	275.67527051328665	1045.4038
85.05642539917308	274.96207933265566	1034.6034
85.76124390703502	274.2504034685707	1023.3935
86.4667128053692	273.5400247573564	1012.03
87.17272263971289	272.83072581210183	1000.7766
87.87916453235917	272.1222898958679	989.8966
88.58593006627854	271.4145007934176	979.645
89.29291116952395	270.7071426817872	970.2613
90.0	270.0	961.9626
90.70708883047607	269.2928573182127	954.9369
91.41406993372146	268.5854992065824	949.3385
92.12083546764083	267.8777101041321	945.2835
92.82727736028711	267.16927418789817	942.8476
93.5332871946308	266.4599752426436	942.0639
94.23875609296496	265.7495965314293	942.9235
94.94357460082692	265.03792066734434	945.3763
95.64763257032061	264.32472948671335	949.334
96.35081904272555	263.60980392411284	954.6731
97.05302213028318	262.89292388955346	961.2401
97.75412889705464	262.17386814820765	968.8566
98.45402523874989	261.45241420309304	977.3254
99.15259576143428	260.7283381811546	986.4368
99.84972365902512	260.0014147232256	995.9751
100.54529058949956	259.27141687839094	1005.7253
101.23917654974393	258.5381160033205	1015.4788
101.93125974898571	257.8012816671933	1025.0392
102.62141648076054	257.06068156288813	1034.2272
103.30952099338153	256.31608142517837	1042.8852
103.99544535889142	255.56724495673262	1050.88
104.67905934049796	254.8139337627975	1058.1056
105.36023025850908	254.05590729551355	1064.4847
106.03882285480874	253.2929228088982	1069.9687
106.71469915593623	252.52473532561788	1074.5378
107.38771833485946	251.7510976167656	1078.1993
108.05773657156229	250.9717601959578	1080.9863
108.7246069125981	250.18647132917056	1082.9543
109.38817912979906	249.39497706184335	1084.1788
110.04829957836931	248.59702126489356	1084.7516
110.70481105463544	247.79234570140352	1084.7774
111.35755265377453	246.98069011586378	1084.3701
112.00635962789397	246.16179234798136	1083.6493
112.65106324489344	245.33538847318857	1082.7366
113.29149064860306	244.50121297211547	1081.7528
113.92746472075892	243.6589989314141	1080.8148
114.55880394545001	242.808478278447	1080.0329
115.18532227675053	241.9493820524694	1079.5089
115.8068290103348	241.08144071504458	1079.3338
116.42312865996352	240.2043845025314	1079.5868
117.03402083982486	239.31794382356657	1080.3336
117.63930015381712	238.4218497045308	1081.6255
118.23875609296496	237.5158342860312	1083.4988
118.83217294227461	236.59963137344585	1085.9741
119.41932969844842	235.67297704455768	1089.0556
120.00000000000001	234.73561031724535	1092.7311
120.573952071433	233.78727388009108	1096.9712
121.14094868327061	232.82771488860465	1101.7292
121.70074712984672	231.85668582953755	1106.941
122.25309922689084	230.87394545546752	1112.525
122.79775133105717	229.879259791457	1118.3817
123.33444438365854	228.8724032151281	1124.3944
123.86291398096766	227.8531596109341	1130.4294
124.38289047353629	226.82132359874498	1136.337
124.89409909705513	225.7767018360815	1141.9523
125.39626013732791	224.71911439243897	1147.0971
125.88908913195978	223.64839619311508	1151.582
126.37229711135494	222.56439852880584	1155.2091
126.84559088158062	221.46699062595428	1157.7752
127.30867335157278	220.35606127143015	1159.0756
127.76124390703504	219.23152048359228	1158.9088
128.20299883320317	218.0933012201501	1157.0806
128.6336317884152	216.94136111151252	1153.4102
129.05283433013093	215.7756842065093	1147.7352
129.460296494684	214.59628271552702	1139.9172
129.85570743161875	213.40319873424195	1129.8477
130.23875609296496	212.19650592930864	1117.453
130.60913197722795	210.9763111656098	1102.6994
130.96652592722884	209.74275605305837	1085.5977
131.31063098021812	208.49601838951028	1066.2059
131.6411432679098	207.2363134751707	1044.6325
131.95776296325596	205.96389527302162	1021.0372
132.26019526990768	204.67905738932384	995.6312
132.54815144940486	203.38213384823078	968.6753
132.8213498802206	202.07349963504214	940.4775
133.07951714187095	200.75357098368477	911.3885
133.32238911641656	199.4228053856752	881.7957
133.5497120988417	198.08170130012184	852.1162
133.76124390703504	196.73079754727542	822.7886
133.9567549814302	195.3706723717232	794.2637
134.13602946382477	194.0019421655169	766.9942
134.2988662445046	192.62525984626305	741.4248
134.44507996657927	191.24131289041563	717.9808
134.57450197640154	189.8508210275788	697.0579
134.68698120911597	188.4545336074338	679.0124
134.78238499876502	187.0532266567986	664.1513
134.8605998029806	185.64769965015518	652.7245
134.92153183310086	184.2387720225645	644.918
134.96510758156856	182.82727945907357	640.8483
134.99127423966527	181.4140699993285	640.5593
135.0	180.0	644.0209
134.99127423966527	178.58593000067157	651.1288
134.96510758156856	177.1727205409264	661.7078
134.92153183310086	175.76122797743554	675.5159
134.8605998029806	174.35230034984485	692.2505
134.78238499876502	172.94677334320141	711.5565
134.68698120911597	171.54546639256625	733.0357
134.57450197640154	170.14917897242117	756.257
134.44507996657927	168.7586871095844	780.768
134.2988662445046	167.37474015373698	806.1063
134.13602946382477	165.9980578344831	831.8118
133.9567549814302	164.62932762827674	857.4375
133.76124390703504	163.2692024527246	882.5608
133.5497120988417	161.9182986998782	906.7934
133.32238911641656	160.57719461432484	929.7894
133.07951714187095	159.24642901631526	951.2527
132.82134988022057	157.92650036495783	970.942
132.54815144940488	156.61786615176925	988.6746
132.26019526990768	155.32094261067618	1004.3277
131.95776296325596	154.03610472697838	1017.838
131.6411432679098	152.76368652482927	1029.1998
131.31063098021812	151.50398161048975	1038.4605
130.96652592722884	150.25724394694163	1045.716
130.60913197722795	149.02368883439024	1051.1033
130.23875609296496	147.80349407069139	1054.7933
129.85570743161873	146.596801265758	1056.9824
129.46029649468403	145.403717284473	1057.8837
129.05283433013096	144.22431579349072	1057.7185
128.6336317884152	143.0586388884875	1056.7082
128.20299883320317	141.90669877984988	1055.0662
127.76124390703505	140.76847951640775	1052.9912
127.3086733515728	139.64393872856988	1050.6617
126.84559088158062	138.53300937404575	1048.2312
126.37229711135495	137.4356014711942	1045.8257
125.88908913195978	136.35160380688492	1043.5416
125.39626013732794	135.28088560756106	1041.4455
124.89409909705515	134.22329816391854	1039.5759
124.38289047353632	133.17867640125502	1037.9454
123.86291398096766	132.14684038906586	1036.5439
123.33444438365856	131.12759678487194	1035.3435
122.7977513310572	130.120740208543	1034.3032
122.25309922689087	129.12605454453248	1033.3741
121.70074712984675	128.14331417046245	1032.5054
121.14094868327061	127.17228511139534	1031.6487
120.57395207143298	126.21272611990892	1030.7638
120.00000000000001	125.26438968275468	1029.8217
119.41932969844845	124.32702295544235	1028.8087
118.83217294227461	123.40036862655414	1027.728
118.23875609296496	122.48416571396879	1026.6012
117.63930015381712	121.57815029546921	1025.4676
117.03402083982486	120.68205617643345	1024.3834
116.42312865996352	119.79561549746859	1023.4194
115.8068290103348	118.91855928495542	1022.657
115.18532227675053	118.05061794753063	1022.1847
114.55880394545002	117.19152172155302	1022.0931
113.92746472075895	116.34100106858591	1022.4696
113.29149064860304	115.49878702788452	1023.3931
112.65106324489344	114.66461152681141	1024.9292
112.00635962789399	113.83820765201867	1027.1248
111.35755265377455	113.01930988413625	1030.0044
110.70481105463546	112.20765429859652	1033.5662
110.04829957836931	111.40297873510644	1037.7804
109.38817912979906	110.60502293815665	1042.5876
108.7246069125981	109.81352867082943	1047.8988
108.05773657156229	109.02823980404222	1053.597
107.38771833485946	108.2489023832344	1059.5395
106.71469915593623	107.47526467438213	1065.5617
106.03882285480876	106.70707719110183	1071.4823
105.36023025850909	105.94409270448648	1077.1086
104.67905934049797	105.18606623720254	1082.2431
103.99544535889142	104.43275504326738	1086.6903
103.30952099338151	103.68391857482159	1090.2639
102.62141648076056	102.93931843711185	1092.7938
101.93125974898572	102.19871833280676	1094.1325
101.23917654974393	101.4618839966795	1094.1612
100.54529058949956	100.72858312160906	1092.7948
99.84972365902513	99.99858527677442	1089.9863
99.15259576143428	99.27166181884544	1085.7294
98.4540252387499	98.54758579690696	1080.0596
97.75412889705464	97.82613185179234	1073.055
97.05302213028318	97.10707611044654	1064.8342
96.35081904272556	96.39019607588716	1055.5536
95.64763257032062	95.67527051328666	1045.4038
94.94357460082692	94.96207933265563	1034.6034
94.23875609296496	94.25040346857071	1023.3935
93.53328719463082	93.54002475735638	1012.03
92.82727736028713	92.83072581210186	1000.7766
92.12083546764086	92.12228989586791	989.8966
91.41406993372146	91.41450079341756	979.645
90.70708883047607	90.70714268178726	970.2613
90.0	0.0	933.9317
90.0	1.0	929.7272
90.0	2.0	925.7882
90.0	3.0000000000000004	922.2144
90.0	4.0	919.0806
90.0	5.0	916.4344
90.0	6.000000000000001	914.2945
90.0	7.0	912.6507
90.0	8.0	911.4647
90.0	9.0	910.672
90.0	10.0	910.1858
90.0	11.0	909.9003
90.0	12.0	909.6966
90.0	13.0	909.4477
90.0	14.0	909.025
90.0	14.999999999999998	908.3042
90.0	16.0	907.1719
90.0	17.000000000000004	905.5314
90.0	18.0	903.3079
90.0	19.0	900.4537
90.0	20.0	896.9513
90.0	21.0	892.8166
90.0	22.0	888.0998
90.0	23.0	882.8863
90.0	24.000000000000004	877.2948
90.0	25.0	871.4751
90.0	26.0	865.6042
90.0	26.999999999999996	859.8817
90.0	28.0	854.5235
90.0	29.000000000000004	849.755
90.0	29.999999999999996	845.8041
90.0	31.0	842.8931
90.0	32.0	841.2309
90.0	33.0	841.0053
90.0	34.00000000000001	842.3757
90.0	35.0	845.4663
90.0	36.0	850.3604
90.0	37.0	857.0957
90.0	38.0	865.6609
90.0	39.0	875.9933
90.0	40.0	887.9789
90.0	41.0	901.4528
90.0	42.0	916.2019
90.0	43.0	931.969
90.0	44.0	948.4577
90.0	45.0	965.3394
90.0	46.00000000000001	982.2606
90.0	47.0	998.8513
90.0	48.00000000000001	1014.7339
90.0	49.00000000000001	1029.5327
90.0	50.0	1042.883
90.0	51.0	1054.4404
90.0	52.0	1063.8893
90.0	53.0	1070.9508
90.0	54.0	1075.3899
90.0	55.0	1077.0208
90.0	56.0	1075.7123
90.0	57.00000000000001	1071.39
90.0	58.00000000000001	1064.0387
90.0	59.00000000000001	1053.7018
90.0	59.99999999999999	1040.4807
90.0	61.0	1024.5315
90.0	62.0	1006.0609
90.0	63.0	985.3207
90.0	64.0	962.602
90.0	65.0	938.227
90.0	66.0	912.542
90.0	67.0	885.9085
90.0	68.0	858.695
90.0	69.0	831.2686
90.0	70.0	803.9868
90.0	71.0	777.1899
90.0	72.0	751.194
90.0	73.0	726.2854
90.0	74.0	702.7147
90.0	75.0	680.6939
90.0	76.0	660.3925
90.0	77.0	641.9369
90.0	78.0	625.4094
90.0	79.0	610.8494
90.0	80.0	598.255
90.0	81.0	587.5865
90.0	82.0	578.7697
90.0	83.0	571.7008
90.0	84.0	566.2516
90.0	85.0	562.2754
90.0	86.0	559.6123
90.0	87.0	558.0962
90.0	88.0	557.5597
90.0	89.0	557.8405
90.0	90.0	558.7866
90.0	91.0	560.2606
90.0	92.0	562.1441
90.0	93.0	564.341
90.0	94.0	566.7797
90.0	95.0	569.4151
90.0	96.00000000000001	572.2286
90.0	97.0	575.2286
90.0	98.0	578.4485
90.0	99.0	581.9454
90.0	100.0	585.7969
90.0	101.0	590.0978
90.0	102.0	594.9559
90.0	103.0	600.4876
90.0	104.0	606.8131
90.0	105.00000000000001	614.0512
90.0	106.0	622.3144
90.0	107.0	631.7038
90.0	108.0	642.3042
90.0	109.0	654.1803
90.0	110.0	667.3723
90.0	111.0	681.8926
90.0	112.0	697.7238
90.0	113.0	714.8166
90.0	114.00000000000001	733.089
90.0	115.0	752.4262
90.0	116.00000000000001	772.6821
90.0	117.0	793.6804
90.0	118.00000000000001	815.2178
90.0	119.0	837.0677
90.0	119.99999999999999	858.9843
90.0	121.0	880.7076
90.0	122.0	901.9692
90.0	123.00000000000001	922.4978
90.0	124.0	942.0259
90.0	125.00000000000001	960.2959
90.0	126.0	977.066
90.0	127.00000000000001	992.1168
90.0	128.0	1005.2566
90.0	129.0	1016.3264
90.0	130.0	1025.2042
90.0	131.0	1031.8088
90.0	132.0	1036.1019
90.0	133.0	1038.0902
90.0	134.0	1037.8251
90.0	135.0	1035.4027
90.0	136.0	1030.9612
90.0	137.0	1024.6788
90.0	138.0	1016.7688
90.0	139.0	1007.4752
90.0	140.0	997.0668
90.0	141.0	985.8306
90.0	142.0	974.065
90.0	143.0	962.0723
90.0	144.0	950.1512
90.0	145.0	938.5898
90.0	146.0	927.658
90.0	147.0	917.6015
90.0	148.0	908.6354
90.0	149.0	900.9393
90.0	150.0	894.6535
90.0	151.0	889.8757
90.0	152.0	886.6595
90.0	153.0	885.0139
90.0	154.0	884.9041
90.0	155.0	886.2536
90.0	156.0	888.9474
90.0	157.0	892.8364
90.0	158.0	897.7426
90.0	159.0	903.4652
90.0	160.0	909.7872
90.0	161.0	916.4823
90.0	162.0	923.3223
90.0	163.0	930.084
90.0	164.0	936.5559
90.0	165.0	942.5448
90.0	166.0	947.8808
90.0	167.0	952.4224
90.0	168.0	956.0599
90.0	169.0	958.7179
90.0	170.0	960.3566
90.0	171.0	960.9716
90.0	172.0	960.5928
90.0	173.0	959.2821
90.0	174.0	957.1297
90.0	175.0	954.2501
90.0	176.0	950.7764
90.0	177.0	946.8547
90.0	178.0	942.6384
90.0	179.0	938.2812
90.0	180.0	933.9317
90.0	181.0	929.7272
90.0	181.99999999999997	925.7882
90.0	182.99999999999997	922.2144
90.0	183.99999999999997	919.0806
90.0	184.99999999999997	916.4344
90.0	185.99999999999997	914.2945
90.0	186.99999999999997	912.6507
90.0	188.0	911.4647
90.0	188.99999999999997	910.672
90.0	190.0	910.1858
90.0	190.99999999999997	909.9003
90.0	192.0	909.6966
90.0	192.99999999999997	909.4477
90.0	193.99999999999997	909.025
90.0	194.99999999999997	908.3042
90.0	195.99999999999997	907.1719
90.0	197.0	905.5314
90.0	197.99999999999997	903.3079
90.0	199.0	900.4537
90.0	199.99999999999997	896.9513
90.0	201.0	892.8166
90.0	201.99999999999997	888.0998
90.0	203.0	882.8863
90.0	203.99999999999997	877.2948
90.0	204.99999999999997	871.4751
90.0	206.0	865.6042
90.0	206.99999999999997	859.8817
90.0	208.0	854.5235
90.0	208.99999999999997	849.755
90.0	210.0	845.8041
90.0	210.99999999999997	842.8931
90.0	212.0	841.2309
90.0	212.99999999999997	841.0053
90.0	214.0	842.3757
90.0	215.0	845.4663
90.0	216.0	850.3604
90.0	217.0	857.0957
90.0	217.99999999999997	865.6609
90.0	219.00000000000003	875.9933
90.0	219.99999999999997	887.9789
90.0	220.99999999999997	901.4528
90.0	221.99999999999997	916.2019
90.0	223.0	931.969
90.0	224.0	948.4577
90.0	224.99999999999997	965.3394
90.0	226.0	982.2606
90.0	227.0	998.8513
90.0	228.0	1014.7339
90.0	229.0	1029.5327
90.0	230.0	1042.883
90.0	230.99999999999997	1054.4404
90.0	232.00000000000003	1063.8893
90.0	233.0	1070.9508
90.0	233.99999999999997	1075.3899
90.0	234.99999999999994	1077.0208
90.0	236.0	1075.7123
90.0	237.0	1071.39
90.0	238.0	1064.0387
90.0	239.0	1053.7018
90.0	239.99999999999994	1040.4807
90.0	241.0	1024.5315
90.0	242.0	1006.0609
90.0	242.99999999999997	985.3207
90.0	243.99999999999994	962.602
90.0	245.0	938.227
90.0	246.0	912.542
90.0	247.0	885.9085
90.0	248.0	858.695
90.0	248.99999999999997	831.2686
90.0	250.0	803.9868
90.0	251.0	777.1899
90.0	252.0	751.194
90.0	252.99999999999997	726.2854
90.0	254.0	702.7147
90.0	255.0	680.6939
90.0	256.0	660.3925
90.0	257.0	641.9369
90.0	258.0	625.4094
90.0	259.0	610.8494
90.0	260.0	598.255
90.0	261.0	587.5865
90.0	262.0	578.7697
90.0	263.0	571.7008
90.0	264.0	566.2516
90.0	265.0	562.2754
90.0	266.0	559.6123
90.0	267.0	558.0962
90.0	268.0	557.5597
90.0	269.0	557.8405
90.0	270.0	558.7866
90.0	271.0	560.2606
90.0	272.0	562.1441
90.0	273.0	564.341
90.0	274.0	566.7797
90.0	275.0	569.4151
90.0	276.0	572.2286
90.0	277.0	575.2286
90.0	278.0	578.4485
90.0	279.0	581.9454
90.0	280.0	585.7969
90.0	281.0	590.0978
90.0	282.0	594.9559
90.0	283.0	600.4876
90.0	284.0	606.8131
90.0	285.0	614.0512
90.0	286.0	622.3144
90.0	287.0	631.7038
90.0	288.0	642.3042
90.0	289.0	654.1803
90.0	290.0	667.3723
90.0	291.0	681.8926
90.0	292.0	697.7238
90.0	293.0	714.8166
90.0	294.0	733.089
90.0	295.0	752.4262
90.0	296.0	772.6821
90.0	297.0	793.6804
90.0	298.0	815.2178
90.0	299.0	837.0677
90.0	300.0	858.9843
90.0	301.0	880.7076
90.0	302.0	901.9692
90.0	303.0	922.4978
90.0	304.0	942.0259
90.0	305.0	960.2959
90.0	306.0	977.066
90.0	307.0	992.1168
90.0	308.0	1005.2566
90.0	309.0	1016.3264
90.0	310.0	1025.2042
90.0	311.0	1031.8088
90.0	311.99999999999994	1036.1019
90.0	313.0	1038.0902
90.0	314.0	1037.8251
90.0	315.0	1035.4027
90.0	316.0	1030.9612
90.0	317.0	1024.6788
90.0	318.0	1016.7688
90.0	319.0	1007.4752
90.0	320.0	997.0668
90.0	321.0	985.8306
90.0	322.0	974.065
90.0	323.0	962.0723
90.0	324.0	950.1512
90.0	325.0	938.5898
90.0	326.0	927.658
90.0	327.0	917.6015
90.0	328.0	908.6354
90.0	329.0	900.9393
90.0	330.0	894.6535
90.0	331.0	889.8757
90.0	332.0	886.6595
90.0	333.0	885.0139
90.0	334.0	884.9041
90.0	335.0	886.2536
90.0	336.0	888.9474
90.0	337.0	892.8364
90.0	338.0	897.7426
90.0	338.99999999999994	903.4652
90.0	340.0	909.7872
90.0	341.0	916.4823
90.0	342.0	923.3223
90.0	343.0	930.084
90.0	344.0	936.5559
90.0	345.0	942.5448
90.0	346.0	947.8808
90.0	347.0	952.4224
90.0	347.99999999999994	956.0599
90.0	349.0	958.7179
90.0	350.0	960.3566
90.0	351.0	960.9716
90.0	352.0	960.5928
90.0	353.0	959.2821
90.0	354.0	957.1297
90.0	355.0	954.2501
90.0	356.0	950.7764
90.0	356.99999999999994	946.8547
90.0	358.0	942.6384
90.0	359.0	938.2812
