Polar Angle 	 Azimuth Angle 	 Intensity 
90.0	0.0	867.2899
89.0	0.0	865.659
88.0	0.0	864.3217
87.00000000000001	0.0	863.2347
86.0	0.0	862.3156
85.0	0.0	861.4489
84.0	0.0	860.4929
83.0	0.0	859.2887
82.0	0.0	857.6697
81.0	0.0	855.4721
80.0	0.0	852.5452
79.0	0.0	848.7611
78.00000000000001	0.0	844.0242
77.0	0.0	838.2788
76.0	0.0	831.515
75.0	0.0	823.7732
74.0	0.0	815.1458
73.0	0.0	805.7771
72.0	0.0	795.8606
71.0	0.0	785.6343
70.0	0.0	775.3738
69.00000000000001	0.0	765.3838
68.0	0.0	755.9875
67.0	0.0	747.5164
66.0	0.0	740.2978
65.0	0.0	734.6431
64.0	0.0	730.8366
63.0	0.0	729.1245
62.0	0.0	729.7051
61.0	0.0	732.7213
60.00000000000001	0.0	738.2545
59.00000000000001	0.0	746.3202
58.00000000000001	0.0	756.8669
57.00000000000001	0.0	769.7762
55.99999999999999	0.0	784.8661
55.00000000000001	0.0	801.896
54.0	0.0	820.5733
53.00000000000001	0.0	840.5627
52.0	0.0	861.4956
51.00000000000001	0.0	882.9811
50.00000000000001	0.0	904.6178
49.00000000000001	0.0	926.0043
48.0	0.0	946.7515
47.0	0.0	966.4917
46.00000000000001	0.0	984.8887
45.0	0.0	1001.6456
44.0	0.0	1016.5104
43.0	0.0	1029.2812
42.0	0.0	1039.808
41.0	0.0	1047.994
40.00000000000001	0.0	1053.7942
39.0	0.0	1057.2125
37.99999999999999	0.0	1058.2976
37.0	0.0	1057.1376
36.0	0.0	1053.8537
35.0	0.0	1048.5933
34.0	0.0	1041.5228
33.0	0.0	1032.8206
31.99999999999999	0.0	1022.671
31.0	0.0	1011.2574
30.000000000000004	0.0	998.7581
29.00000000000001	0.0	985.3416
28.000000000000007	0.0	971.1643
27.00000000000001	0.0	956.3686
25.999999999999996	0.0	941.0825
25.000000000000004	0.0	925.4201
24.000000000000004	0.0	909.4835
22.999999999999993	0.0	893.3646
21.999999999999996	0.0	877.1487
21.0	0.0	860.9168
20.00000000000001	0.0	844.7495
19.000000000000014	0.0	828.7298
18.00000000000001	0.0	812.9456
17.000000000000007	0.0	797.4914
15.999999999999995	0.0	782.47
14.999999999999996	0.0	767.9923
14.0	0.0	754.1766
12.999999999999996	0.0	741.1467
12.000000000000018	0.0	729.03
10.999999999999993	0.0	717.9531
10.000000000000012	0.0	708.0387
8.999999999999984	0.0	699.4004
7.999999999999981	0.0	692.1388
7.000000000000025	0.0	686.3364
6.000000000000026	0.0	682.0539
4.999999999999992	0.0	679.3264
4.000000000000042	0.0	678.1608
3.0000000000000444	0.0	678.5344
1.9999999999999472	0.0	680.3938
0.9999999999999002	0.0	683.6563
0.0	0.0	688.212
0.9999999999999002	180.0	693.9271
1.9999999999999472	180.0	700.6483
3.0000000000000444	180.0	708.209
4.000000000000042	180.0	716.4354
4.999999999999992	180.0	725.1536
6.000000000000026	180.0	734.1968
6.9999999999999725	180.0	743.4125
7.999999999999981	180.0	752.6691
8.999999999999984	180.0	761.8621
10.000000000000012	180.0	770.9184
10.999999999999993	180.0	779.8003
11.999999999999988	180.0	788.507
12.999999999999996	180.0	797.0752
14.0	180.0	805.577
14.999999999999996	180.0	814.1164
15.999999999999995	180.0	822.8244
16.99999999999999	180.0	831.8521
17.999999999999986	180.0	841.3624
18.999999999999996	180.0	851.5207
19.999999999999993	180.0	862.4855
21.0	180.0	874.3975
21.999999999999996	180.0	887.3707
23.00000000000001	180.0	901.482
24.000000000000004	180.0	916.7638
24.99999999999999	180.0	933.1965
26.000000000000007	180.0	950.7042
26.999999999999996	180.0	969.1512
28.000000000000007	180.0	988.3421
28.999999999999996	180.0	1008.0231
29.999999999999993	180.0	1027.8871
31.0	180.0	1047.58
31.99999999999999	180.0	1066.7101
33.0	180.0	1084.8592
34.0	180.0	1101.5951
35.000000000000014	180.0	1116.4856
36.0	180.0	1129.113
37.000000000000014	180.0	1139.089
37.99999999999999	180.0	1146.0688
38.99999999999999	180.0	1149.7644
40.00000000000001	180.0	1149.9569
40.999999999999986	180.0	1146.5059
42.0	180.0	1139.3574
43.0	180.0	1128.5485
44.00000000000001	180.0	1114.2091
45.0	180.0	1096.5611
46.000000000000014	180.0	1075.9135
47.0	180.0	1052.6555
47.999999999999986	180.0	1027.2465
49.00000000000001	180.0	1000.2028
49.99999999999999	180.0	972.0839
51.00000000000001	180.0	943.4759
51.99999999999999	180.0	914.9744
53.000000000000014	180.0	887.1671
53.99999999999999	180.0	860.6164
55.000000000000014	180.0	835.8433
55.99999999999999	180.0	813.3121
56.999999999999986	180.0	793.4176
58.00000000000001	180.0	776.4742
58.99999999999999	180.0	762.7085
60.00000000000001	180.0	752.2542
61.0	180.0	745.1503
62.000000000000014	180.0	741.3432
63.0	180.0	740.6906
64.00000000000001	180.0	742.9696
65.0	180.0	747.8868
65.99999999999999	180.0	755.0899
67.0	180.0	764.1823
68.0	180.0	774.7378
69.00000000000001	180.0	786.3158
70.0	180.0	798.4775
71.00000000000001	180.0	810.7998
72.0	180.0	822.8898
73.00000000000001	180.0	834.3959
74.0	180.0	845.0182
74.99999999999999	180.0	854.5158
76.0	180.0	862.7112
77.0	180.0	869.493
78.00000000000001	180.0	874.8145
79.0	180.0	878.6909
80.00000000000001	180.0	881.1932
81.0	180.0	882.4407
82.00000000000001	180.0	882.5913
83.0	180.0	881.831
83.99999999999999	180.0	880.3623
85.0	180.0	878.3924
86.0	180.0	876.1224
87.00000000000001	180.0	873.7364
88.0	180.0	871.3926
89.00000000000001	180.0	869.2154
90.0	180.0	867.2899
91.00000000000001	180.0	865.659
92.0	180.0	864.3217
92.99999999999999	180.0	863.2347
94.0	180.0	862.3156
95.0	180.0	861.4489
96.00000000000001	180.0	860.4929
97.0	180.0	859.2887
98.00000000000001	180.0	857.6697
99.0	180.0	855.4721
100.00000000000001	180.0	852.5452
101.0	180.0	848.7611
102.00000000000001	180.0	844.0242
103.0	180.0	838.2788
104.0	180.0	831.515
105.00000000000001	180.0	823.7732
106.0	180.0	815.1458
107.00000000000001	180.0	805.7771
108.0	180.0	795.8606
109.00000000000001	180.0	785.6343
110.0	180.0	775.3738
111.00000000000001	180.0	765.3838
112.0	180.0	755.9875
113.0	180.0	747.5164
114.00000000000001	180.0	740.2978
115.0	180.0	734.6431
116.00000000000001	180.0	730.8366
117.0	180.0	729.1245
118.00000000000001	180.0	729.7051
119.0	180.0	732.7213
120.00000000000001	180.0	738.2545
121.0	180.0	746.3202
122.0	180.0	756.8669
123.00000000000001	180.0	769.7762
124.0	180.0	784.8661
125.00000000000001	180.0	801.896
126.0	180.0	820.5733
127.00000000000001	180.0	840.5627
128.0	180.0	861.4956
129.00000000000003	180.0	882.9811
130.0	180.0	904.6178
131.0	180.0	926.0043
132.0	180.0	946.7515
133.0	180.0	966.4917
134.0	180.0	984.8887
135.0	180.0	1001.6456
136.0	180.0	1016.5104
137.0	180.0	1029.2812
138.00000000000003	180.0	1039.808
139.0	180.0	1047.994
140.0	180.0	1053.7942
140.99999999999997	180.0	1057.2125
142.00000000000003	180.0	1058.2976
143.0	180.0	1057.1376
144.0	180.0	1053.8537
145.0	180.0	1048.5933
146.00000000000003	180.0	1041.5228
147.00000000000003	180.0	1032.8206
148.0	180.0	1022.671
149.0	180.0	1011.2574
149.99999999999997	180.0	998.7581
151.00000000000003	180.0	985.3416
152.0	180.0	971.1643
153.0	180.0	956.3686
154.0	180.0	941.0825
155.00000000000003	180.0	925.4201
156.00000000000003	180.0	909.4835
157.0	180.0	893.3646
158.0	180.0	877.1487
158.99999999999997	180.0	860.9168
160.00000000000003	180.0	844.7495
161.0	180.0	828.7298
162.0	180.0	812.9456
163.0	180.0	797.4914
164.00000000000003	180.0	782.47
165.00000000000003	180.0	767.9923
166.0	180.0	754.1766
167.0	180.0	741.1467
167.99999999999997	180.0	729.03
169.00000000000003	180.0	717.9531
169.99999999999997	180.0	708.0387
170.99999999999997	180.0	699.4004
172.0	180.0	692.1388
173.00000000000003	180.0	686.3364
174.00000000000003	180.0	682.0539
175.0	180.0	679.3264
175.99999999999997	180.0	678.1608
176.99999999999994	180.0	678.5344
178.00000000000006	180.0	680.3938
179.0000000000001	180.0	683.6563
180.0	180.0	688.212
179.0000000000001	0.0	693.9271
178.00000000000006	0.0	700.6483
176.99999999999994	0.0	708.209
176.00000000000006	0.0	716.4354
175.0	0.0	725.1536
174.00000000000003	0.0	734.1968
172.99999999999997	0.0	743.4125
172.0	0.0	752.6691
171.00000000000003	0.0	761.8621
170.00000000000003	0.0	770.9184
168.99999999999997	0.0	779.8003
167.99999999999997	0.0	788.507
167.00000000000003	0.0	797.0752
166.00000000000003	0.0	805.577
165.00000000000003	0.0	814.1164
163.99999999999997	0.0	822.8244
163.0	0.0	831.8521
162.00000000000003	0.0	841.3624
161.00000000000003	0.0	851.5207
160.0	0.0	862.4855
159.0	0.0	874.3975
158.00000000000003	0.0	887.3707
157.00000000000003	0.0	901.482
156.00000000000003	0.0	916.7638
154.99999999999997	0.0	933.1965
154.0	0.0	950.7042
153.00000000000003	0.0	969.1512
152.0	0.0	988.3421
150.99999999999997	0.0	1008.0231
150.0	0.0	1027.8871
149.0	0.0	1047.58
148.0	0.0	1066.7101
147.00000000000003	0.0	1084.8592
146.0	0.0	1101.5951
145.0	0.0	1116.4856
144.00000000000003	0.0	1129.113
143.0	0.0	1139.089
142.0	0.0	1146.0688
140.99999999999997	0.0	1149.7644
140.00000000000003	0.0	1149.9569
139.00000000000003	0.0	1146.5059
138.00000000000003	0.0	1139.3574
137.0	0.0	1128.5485
136.0	0.0	1114.2091
135.00000000000003	0.0	1096.5611
134.00000000000003	0.0	1075.9135
132.99999999999997	0.0	1052.6555
131.99999999999997	0.0	1027.2465
131.00000000000003	0.0	1000.2028
130.00000000000003	0.0	972.0839
129.00000000000003	0.0	943.4759
128.0	0.0	914.9744
126.99999999999999	0.0	887.1671
126.00000000000003	0.0	860.6164
125.00000000000004	0.0	835.8433
123.99999999999997	0.0	813.3121
122.99999999999999	0.0	793.4176
122.0	0.0	776.4742
121.0	0.0	762.7085
120.00000000000001	0.0	752.2542
119.0	0.0	745.1503
118.00000000000001	0.0	741.3432
117.00000000000003	0.0	740.6906
116.00000000000004	0.0	742.9696
115.0	0.0	747.8868
114.00000000000001	0.0	755.0899
113.00000000000001	0.0	764.1823
112.00000000000003	0.0	774.7378
111.00000000000004	0.0	786.3158
110.0	0.0	798.4775
109.00000000000001	0.0	810.7998
108.00000000000003	0.0	822.8898
107.00000000000004	0.0	834.3959
106.0	0.0	845.0182
105.0	0.0	854.5158
104.00000000000001	0.0	862.7112
103.00000000000001	0.0	869.493
102.00000000000003	0.0	874.8145
100.99999999999999	0.0	878.6909
100.0	0.0	881.1932
99.00000000000001	0.0	882.4407
98.00000000000003	0.0	882.5913
96.99999999999999	0.0	881.831
96.0	0.0	880.3623
95.0	0.0	878.3924
94.00000000000001	0.0	876.1224
93.00000000000003	0.0	873.7364
91.99999999999999	0.0	871.3926
91.0	0.0	869.2154
90.0	90.0	708.9549
89.0	90.0	707.6487
88.0	90.0	706.165
87.00000000000001	90.0	704.5133
86.0	90.0	702.7169
85.0	90.0	700.8139
84.0	90.0	698.8577
83.0	90.0	696.9177
82.0	90.0	695.0795
81.0	90.0	693.4447
80.0	90.0	692.1302
79.0	90.0	691.2667
78.00000000000001	90.0	690.9974
77.0	90.0	691.4745
76.0	90.0	692.8566
75.0	90.0	695.3049
74.0	90.0	698.9782
73.0	90.0	704.0285
72.0	90.0	710.5954
71.0	90.0	718.8014
70.0	90.0	728.7459
69.00000000000001	90.0	740.5004
68.0	90.0	754.1039
67.0	90.0	769.5585
66.0	90.0	786.8264
65.0	90.0	805.8274
64.0	90.0	826.4377
63.0	90.0	848.49
62.0	90.0	871.7744
61.0	90.0	896.0413
60.00000000000001	90.0	921.005
59.00000000000001	90.0	946.3486
58.00000000000001	90.0	971.7302
57.00000000000001	90.0	996.79
55.99999999999999	90.0	1021.1578
55.00000000000001	90.0	1044.4615
54.0	90.0	1066.3352
53.00000000000001	90.0	1086.4282
52.0	90.0	1104.4132
51.00000000000001	90.0	1119.9935
50.00000000000001	90.0	1132.9108
49.00000000000001	90.0	1142.9508
48.0	90.0	1149.948
47.0	90.0	1153.7895
46.00000000000001	90.0	1154.4171
45.0	90.0	1151.8281
44.0	90.0	1146.0743
43.0	90.0	1137.2603
42.0	90.0	1125.5396
41.0	90.0	1111.1102
40.00000000000001	90.0	1094.2092
39.0	90.0	1075.1059
37.99999999999999	90.0	1054.0951
37.0	90.0	1031.49
36.0	90.0	1007.6143
35.0	90.0	982.7955
34.0	90.0	957.3575
33.0	90.0	931.615
31.99999999999999	90.0	905.8672
31.0	90.0	880.3936
30.000000000000004	90.0	855.4502
29.00000000000001	90.0	831.2667
28.000000000000007	90.0	808.0445
27.00000000000001	90.0	785.9563
25.999999999999996	90.0	765.1461
25.000000000000004	90.0	745.73
24.000000000000004	90.0	727.7978
22.999999999999993	90.0	711.4146
21.999999999999996	90.0	696.6237
21.0	90.0	683.4489
20.00000000000001	90.0	671.8967
19.000000000000014	90.0	661.9586
18.00000000000001	90.0	653.6135
17.000000000000007	90.0	646.8293
15.999999999999995	90.0	641.5636
14.999999999999996	90.0	637.7651
14.0	90.0	635.3736
12.999999999999996	90.0	634.3201
12.000000000000018	90.0	634.5261
10.999999999999993	90.0	635.9031
10.000000000000012	90.0	638.3519
8.999999999999984	90.0	641.7618
7.999999999999981	90.0	646.0099
7.000000000000025	90.0	650.9613
6.000000000000026	90.0	656.4689
4.999999999999992	90.0	662.3743
4.000000000000042	90.0	668.5097
3.0000000000000444	90.0	674.6997
1.9999999999999472	90.0	680.7643
0.9999999999999002	90.0	686.5229
0.0	90.0	691.7985
0.9999999999999002	270.0	696.4227
1.9999999999999472	270.0	700.2408
3.0000000000000444	270.0	703.1179
4.000000000000042	270.0	704.9442
4.999999999999992	270.0	705.6404
6.000000000000026	270.0	705.1631
6.9999999999999725	270.0	703.5087
7.999999999999981	270.0	700.7168
8.999999999999984	270.0	696.873
10.000000000000012	270.0	692.1095
10.999999999999993	270.0	686.6045
11.999999999999988	270.0	680.5809
12.999999999999996	270.0	674.302
14.0	270.0	668.0668
14.999999999999996	270.0	662.2033
15.999999999999995	270.0	657.0606
16.99999999999999	270.0	652.9995
17.999999999999986	270.0	650.383
18.999999999999996	270.0	649.5652
19.999999999999993	270.0	650.8806
21.0	270.0	654.6332
21.999999999999996	270.0	661.0856
23.00000000000001	270.0	670.45
24.000000000000004	270.0	682.8788
24.99999999999999	270.0	698.4578
26.000000000000007	270.0	717.2008
26.999999999999996	270.0	739.0456
28.000000000000007	270.0	763.8525
28.999999999999996	270.0	791.4056
29.999999999999993	270.0	821.4146
31.0	270.0	853.521
31.99999999999999	270.0	887.3044
33.0	270.0	922.2917
34.0	270.0	957.9678
35.000000000000014	270.0	993.7874
36.0	270.0	1029.188
37.000000000000014	270.0	1063.6031
37.99999999999999	270.0	1096.4761
38.99999999999999	270.0	1127.2736
40.00000000000001	270.0	1155.4981
40.999999999999986	270.0	1180.6999
42.0	270.0	1202.4875
43.0	270.0	1220.5364
44.00000000000001	270.0	1234.5958
45.0	270.0	1244.4938
46.000000000000014	270.0	1250.1396
47.0	270.0	1251.5243
47.999999999999986	270.0	1248.7189
49.00000000000001	270.0	1241.8708
49.99999999999999	270.0	1231.1977
51.00000000000001	270.0	1216.9806
51.99999999999999	270.0	1199.5546
53.000000000000014	270.0	1179.2995
53.99999999999999	270.0	1156.6287
55.000000000000014	270.0	1131.9784
55.99999999999999	270.0	1105.7965
56.999999999999986	270.0	1078.5315
58.00000000000001	270.0	1050.6224
58.99999999999999	270.0	1022.4895
60.00000000000001	270.0	994.5256
61.0	270.0	967.0895
62.000000000000014	270.0	940.5
63.0	270.0	915.032
64.00000000000001	270.0	890.9139
65.0	270.0	868.3263
65.99999999999999	270.0	847.4025
67.0	270.0	828.2298
68.0	270.0	810.8526
69.00000000000001	270.0	795.2755
70.0	270.0	781.468
71.00000000000001	270.0	769.3691
72.0	270.0	758.8924
73.00000000000001	270.0	749.9314
74.0	270.0	742.3648
74.99999999999999	270.0	736.0606
76.0	270.0	730.8812
77.0	270.0	726.6872
78.00000000000001	270.0	723.3405
79.0	270.0	720.7071
80.00000000000001	270.0	718.6597
81.0	270.0	717.0786
82.00000000000001	270.0	715.8534
83.0	270.0	714.8835
83.99999999999999	270.0	714.0784
85.0	270.0	713.3581
86.0	270.0	712.6529
87.00000000000001	270.0	711.9034
88.0	270.0	711.0608
89.00000000000001	270.0	710.087
90.0	270.0	708.9549
91.00000000000001	270.0	707.6487
92.0	270.0	706.165
92.99999999999999	270.0	704.5133
94.0	270.0	702.7169
95.0	270.0	700.8139
96.00000000000001	270.0	698.8577
97.0	270.0	696.9177
98.00000000000001	270.0	695.0795
99.0	270.0	693.4447
100.00000000000001	270.0	692.1302
101.0	270.0	691.2667
102.00000000000001	270.0	690.9974
103.0	270.0	691.4745
104.0	270.0	692.8566
105.00000000000001	270.0	695.3049
106.0	270.0	698.9782
107.00000000000001	270.0	704.0285
108.0	270.0	710.5954
109.00000000000001	270.0	718.8014
110.0	270.0	728.7459
111.00000000000001	270.0	740.5004
112.0	270.0	754.1039
113.0	270.0	769.5585
114.00000000000001	270.0	786.8264
115.0	270.0	805.8274
116.00000000000001	270.0	826.4377
117.0	270.0	848.49
118.00000000000001	270.0	871.7744
119.0	270.0	896.0413
120.00000000000001	270.0	921.005
121.0	270.0	946.3486
122.0	270.0	971.7302
123.00000000000001	270.0	996.79
124.0	270.0	1021.1578
125.00000000000001	270.0	1044.4615
126.0	270.0	1066.3352
127.00000000000001	270.0	1086.4282
128.0	270.0	1104.4132
129.00000000000003	270.0	1119.9935
130.0	270.0	1132.9108
131.0	270.0	1142.9508
132.0	270.0	1149.948
133.0	270.0	1153.7895
134.0	270.0	1154.4171
135.0	270.0	1151.8281
136.0	270.0	1146.0743
137.0	270.0	1137.2603
138.00000000000003	270.0	1125.5396
139.0	270.0	1111.1102
140.0	270.0	1094.2092
140.99999999999997	270.0	1075.1059
142.00000000000003	270.0	1054.0951
143.0	270.0	1031.49
144.0	270.0	1007.6143
145.0	270.0	982.7955
146.00000000000003	270.0	957.3575
147.00000000000003	270.0	931.615
148.0	270.0	905.8672
149.0	270.0	880.3936
149.99999999999997	270.0	855.4502
151.00000000000003	270.0	831.2667
152.0	270.0	808.0445
153.0	270.0	785.9563
154.0	270.0	765.1461
155.00000000000003	270.0	745.73
156.00000000000003	270.0	727.7978
157.0	270.0	711.4146
158.0	270.0	696.6237
158.99999999999997	270.0	683.4489
160.00000000000003	270.0	671.8967
161.0	270.0	661.9586
162.0	270.0	653.6135
163.0	270.0	646.8293
164.00000000000003	270.0	641.5636
165.00000000000003	270.0	637.7651
166.0	270.0	635.3736
167.0	270.0	634.3201
167.99999999999997	270.0	634.5261
169.00000000000003	270.0	635.9031
169.99999999999997	270.0	638.3519
170.99999999999997	270.0	641.7618
172.0	270.0	646.0099
173.00000000000003	270.0	650.9613
174.00000000000003	270.0	656.4689
175.0	270.0	662.3743
175.99999999999997	270.0	668.5097
176.99999999999994	270.0	674.6997
178.00000000000006	270.0	680.7643
179.0000000000001	270.0	686.5229
180.0	270.0	691.7985
179.0000000000001	90.0	696.4227
178.00000000000006	90.0	700.2408
176.99999999999994	90.0	703.1179
176.00000000000006	90.0	704.9442
175.0	90.0	705.6404
174.00000000000003	90.0	705.1631
172.99999999999997	90.0	703.5087
172.0	90.0	700.7168
171.00000000000003	90.0	696.873
170.00000000000003	90.0	692.1095
168.99999999999997	90.0	686.6045
167.99999999999997	90.0	680.5809
167.00000000000003	90.0	674.302
166.00000000000003	90.0	668.0668
165.00000000000003	90.0	662.2033
163.99999999999997	90.0	657.0606
163.0	90.0	652.9995
162.00000000000003	90.0	650.383
161.00000000000003	90.0	649.5652
160.0	90.0	650.8806
159.0	90.0	654.6332
158.00000000000003	90.0	661.0856
157.00000000000003	90.0	670.45
156.00000000000003	90.0	682.8788
154.99999999999997	90.0	698.4578
154.0	90.0	717.2008
153.00000000000003	90.0	739.0456
152.0	90.0	763.8525
150.99999999999997	90.0	791.4056
150.0	90.0	821.4146
149.0	90.0	853.521
148.0	90.0	887.3044
147.00000000000003	90.0	922.2917
146.0	90.0	957.9678
145.0	90.0	993.7874
144.00000000000003	90.0	1029.188
143.0	90.0	1063.6031
142.0	90.0	1096.4761
140.99999999999997	90.0	1127.2736
140.00000000000003	90.0	1155.4981
139.00000000000003	90.0	1180.6999
138.00000000000003	90.0	1202.4875
137.0	90.0	1220.5364
136.0	90.0	1234.5958
135.00000000000003	90.0	1244.4938
134.00000000000003	90.0	1250.1396
132.99999999999997	90.0	1251.5243
131.99999999999997	90.0	1248.7189
131.00000000000003	90.0	1241.8708
130.00000000000003	90.0	1231.1977
129.00000000000003	90.0	1216.9806
128.0	90.0	1199.5546
126.99999999999999	90.0	1179.2995
126.00000000000003	90.0	1156.6287
125.00000000000004	90.0	1131.9784
123.99999999999997	90.0	1105.7965
122.99999999999999	90.0	1078.5315
122.0	90.0	1050.6224
121.0	90.0	1022.4895
120.00000000000001	90.0	994.5256
119.0	90.0	967.0895
118.00000000000001	90.0	940.5
117.00000000000003	90.0	915.032
116.00000000000004	90.0	890.9139
115.0	90.0	868.3263
114.00000000000001	90.0	847.4025
113.00000000000001	90.0	828.2298
112.00000000000003	90.0	810.8526
111.00000000000004	90.0	795.2755
110.0	90.0	781.468
109.00000000000001	90.0	769.3691
108.00000000000003	90.0	758.8924
107.00000000000004	90.0	749.9314
106.0	90.0	742.3648
105.0	90.0	736.0606
104.00000000000001	90.0	730.8812
103.00000000000001	90.0	726.6872
102.00000000000003	90.0	723.3405
100.99999999999999	90.0	720.7071
100.0	90.0	718.6597
99.00000000000001	90.0	717.0786
98.00000000000003	90.0	715.8534
96.99999999999999	90.0	714.8835
96.0	90.0	714.0784
95.0	90.0	713.3581
94.00000000000001	90.0	712.6529
93.00000000000003	90.0	711.9034
91.99999999999999	90.0	711.0608
91.0	90.0	710.087
90.0	45.0	1066.4302
89.0	45.0	1057.9771
88.0	45.0	1048.5593
87.00000000000001	45.0	1038.3674
86.0	45.0	1027.5991
85.0	45.0	1016.4549
84.0	45.0	1005.1349
83.0	45.0	993.8355
82.0	45.0	982.747
81.0	45.0	972.0514
80.0	45.0	961.9201
79.0	45.0	952.5127
78.00000000000001	45.0	943.9755
77.0	45.0	936.4408
76.0	45.0	930.0252
75.0	45.0	924.8297
74.0	45.0	920.9383
73.0	45.0	918.4175
72.0	45.0	917.3157
71.0	45.0	917.6624
70.0	45.0	919.4673
69.00000000000001	45.0	922.7204
68.0	45.0	927.3905
67.0	45.0	933.4257
66.0	45.0	940.7527
65.0	45.0	949.277
64.0	45.0	958.8833
63.0	45.0	969.4364
62.0	45.0	980.782
61.0	45.0	992.7488
60.00000000000001	45.0	1005.1501
59.00000000000001	45.0	1017.7868
58.00000000000001	45.0	1030.4498
57.00000000000001	45.0	1042.9239
55.99999999999999	45.0	1054.991
55.00000000000001	45.0	1066.4345
54.0	45.0	1077.0429
53.00000000000001	45.0	1086.6141
52.0	45.0	1094.9597
51.00000000000001	45.0	1101.9084
50.00000000000001	45.0	1107.3097
49.00000000000001	45.0	1111.0371
48.0	45.0	1112.9905
47.0	45.0	1113.0984
46.00000000000001	45.0	1111.3189
45.0	45.0	1107.6403
44.0	45.0	1102.081
43.0	45.0	1094.6887
42.0	45.0	1085.5385
41.0	45.0	1074.7306
40.00000000000001	45.0	1062.3879
39.0	45.0	1048.652
37.99999999999999	45.0	1033.6804
37.0	45.0	1017.6419
36.0	45.0	1000.713
35.0	45.0	983.0738
34.0	45.0	964.9045
33.0	45.0	946.3818
31.99999999999999	45.0	927.6758
31.0	45.0	908.9473
30.000000000000004	45.0	890.3461
29.00000000000001	45.0	872.0088
28.000000000000007	45.0	854.0587
27.00000000000001	45.0	836.6046
25.999999999999996	45.0	819.7414
25.000000000000004	45.0	803.5504
24.000000000000004	45.0	788.1004
22.999999999999993	45.0	773.4486
21.999999999999996	45.0	759.6423
21.0	45.0	746.7202
20.00000000000001	45.0	734.7137
19.000000000000014	45.0	723.6482
18.00000000000001	45.0	713.5442
17.000000000000007	45.0	704.4181
15.999999999999995	45.0	696.2824
14.999999999999996	45.0	689.1461
14.0	45.0	683.0144
12.999999999999996	45.0	677.8879
12.000000000000018	45.0	673.762
10.999999999999993	45.0	670.6258
10.000000000000012	45.0	668.4609
8.999999999999984	45.0	667.2407
7.999999999999981	45.0	666.9286
7.000000000000025	45.0	667.4778
6.000000000000026	45.0	668.8307
4.999999999999992	45.0	670.9186
4.000000000000042	45.0	673.6624
3.0000000000000444	45.0	676.9736
1.9999999999999472	45.0	680.7554
0.9999999999999002	45.0	684.9055
0.0	45.0	689.3182
0.9999999999999002	225.0	693.888
1.9999999999999472	225.0	698.5133
3.0000000000000444	225.0	703.0997
4.000000000000042	225.0	707.5647
4.999999999999992	225.0	711.841
6.000000000000026	225.0	715.8811
6.9999999999999725	225.0	719.6601
7.999999999999981	225.0	723.1786
8.999999999999984	225.0	726.4651
10.000000000000012	225.0	729.5772
10.999999999999993	225.0	732.6014
11.999999999999988	225.0	735.6528
12.999999999999996	225.0	738.8728
14.0	225.0	742.4259
14.999999999999996	225.0	746.4954
15.999999999999995	225.0	751.2782
16.99999999999999	225.0	756.9785
17.999999999999986	225.0	763.8008
18.999999999999996	225.0	771.9424
19.999999999999993	225.0	781.5855
21.0	225.0	792.8893
21.999999999999996	225.0	805.9828
23.00000000000001	225.0	820.9574
24.000000000000004	225.0	837.8606
24.99999999999999	225.0	856.691
26.000000000000007	225.0	877.3944
26.999999999999996	225.0	899.8614
28.000000000000007	225.0	923.9264
28.999999999999996	225.0	949.3691
29.999999999999993	225.0	975.9167
31.0	225.0	1003.249
31.99999999999999	225.0	1031.0043
33.0	225.0	1058.787
34.0	225.0	1086.1772
35.000000000000014	225.0	1112.7405
36.0	225.0	1138.0393
37.000000000000014	225.0	1161.644
37.99999999999999	225.0	1183.1449
38.99999999999999	225.0	1202.163
40.00000000000001	225.0	1218.3618
40.999999999999986	225.0	1231.456
42.0	225.0	1241.2208
43.0	225.0	1247.4987
44.00000000000001	225.0	1250.2046
45.0	225.0	1249.3295
46.000000000000014	225.0	1244.9408
47.0	225.0	1237.1826
47.999999999999986	225.0	1226.2712
49.00000000000001	225.0	1212.4911
49.99999999999999	225.0	1196.1873
51.00000000000001	225.0	1177.757
51.99999999999999	225.0	1157.6389
53.000000000000014	225.0	1136.3026
53.99999999999999	225.0	1114.2359
55.000000000000014	225.0	1091.9331
55.99999999999999	225.0	1069.8816
56.999999999999986	225.0	1048.5506
58.00000000000001	225.0	1028.379
58.99999999999999	225.0	1009.7652
60.00000000000001	225.0	993.0579
61.0	225.0	978.5486
62.000000000000014	225.0	966.4653
63.0	225.0	956.9691
64.00000000000001	225.0	950.1515
65.0	225.0	946.0348
65.99999999999999	225.0	944.5737
67.0	225.0	945.6588
68.0	225.0	949.1217
69.00000000000001	225.0	954.742
70.0	225.0	962.2546
71.00000000000001	225.0	971.3586
72.0	225.0	981.7265
73.00000000000001	225.0	993.0137
74.0	225.0	1004.8683
74.99999999999999	225.0	1016.9399
76.0	225.0	1028.8889
77.0	225.0	1040.3942
78.00000000000001	225.0	1051.1602
79.0	225.0	1060.9229
80.00000000000001	225.0	1069.4549
81.0	225.0	1076.5684
82.00000000000001	225.0	1082.1178
83.0	225.0	1086.0005
83.99999999999999	225.0	1088.1571
85.0	225.0	1088.5697
86.0	225.0	1087.2599
87.00000000000001	225.0	1084.286
88.0	225.0	1079.739
89.00000000000001	225.0	1073.739
90.0	225.0	1066.4302
91.00000000000001	225.0	1057.9771
92.0	225.0	1048.5593
92.99999999999999	225.0	1038.3674
94.0	225.0	1027.5991
95.0	225.0	1016.4549
96.00000000000001	225.0	1005.1349
97.0	225.0	993.8355
98.00000000000001	225.0	982.747
99.0	225.0	972.0514
100.00000000000001	225.0	961.9201
101.0	225.0	952.5127
102.00000000000001	225.0	943.9755
103.0	225.0	936.4408
104.0	225.0	930.0252
105.00000000000001	225.0	924.8297
106.0	225.0	920.9383
107.00000000000001	225.0	918.4175
108.0	225.0	917.3157
109.00000000000001	225.0	917.6624
110.0	225.0	919.4673
111.00000000000001	225.0	922.7204
112.0	225.0	927.3905
113.0	225.0	933.4257
114.00000000000001	225.0	940.7527
115.0	225.0	949.277
116.00000000000001	225.0	958.8833
117.0	225.0	969.4364
118.00000000000001	225.0	980.782
119.0	225.0	992.7488
120.00000000000001	225.0	1005.1501
121.0	225.0	1017.7868
122.0	225.0	1030.4498
123.00000000000001	225.0	1042.9239
124.0	225.0	1054.991
125.00000000000001	225.0	1066.4345
126.0	225.0	1077.0429
127.00000000000001	225.0	1086.6141
128.0	225.0	1094.9597
129.00000000000003	225.0	1101.9084
130.0	225.0	1107.3097
131.0	225.0	1111.0371
132.0	225.0	1112.9905
133.0	225.0	1113.0984
134.0	225.0	1111.3189
135.0	225.0	1107.6403
136.0	225.0	1102.081
137.0	225.0	1094.6887
138.00000000000003	225.0	1085.5385
139.0	225.0	1074.7306
140.0	225.0	1062.3879
140.99999999999997	225.0	1048.652
142.00000000000003	225.0	1033.6804
143.0	225.0	1017.6419
144.0	225.0	1000.713
145.0	225.0	983.0738
146.00000000000003	225.0	964.9045
147.00000000000003	225.0	946.3818
148.0	225.0	927.6758
149.0	225.0	908.9473
149.99999999999997	225.0	890.3461
151.00000000000003	225.0	872.0088
152.0	225.0	854.0587
153.0	225.0	836.6046
154.0	225.0	819.7414
155.00000000000003	225.0	803.5504
156.00000000000003	225.0	788.1004
157.0	225.0	773.4486
158.0	225.0	759.6423
158.99999999999997	225.0	746.7202
160.00000000000003	225.0	734.7137
161.0	225.0	723.6482
162.0	225.0	713.5442
163.0	225.0	704.4181
164.00000000000003	225.0	696.2824
165.00000000000003	225.0	689.1461
166.0	225.0	683.0144
167.0	225.0	677.8879
167.99999999999997	225.0	673.762
169.00000000000003	225.0	670.6258
169.99999999999997	225.0	668.4609
170.99999999999997	225.0	667.2407
172.0	225.0	666.9286
173.00000000000003	225.0	667.4778
174.00000000000003	225.0	668.8307
175.0	225.0	670.9186
175.99999999999997	225.0	673.6624
176.99999999999994	225.0	676.9736
178.00000000000006	225.0	680.7554
179.0000000000001	225.0	684.9055
180.0	225.0	689.3182
179.0000000000001	45.0	693.888
178.00000000000006	45.0	698.5133
176.99999999999994	45.0	703.0997
176.00000000000006	45.0	707.5647
175.0	45.0	711.841
174.00000000000003	45.0	715.8811
172.99999999999997	45.0	719.6601
172.0	45.0	723.1786
171.00000000000003	45.0	726.4651
170.00000000000003	45.0	729.5772
168.99999999999997	45.0	732.6014
167.99999999999997	45.0	735.6528
167.00000000000003	45.0	738.8728
166.00000000000003	45.0	742.4259
165.00000000000003	45.0	746.4954
163.99999999999997	45.0	751.2782
163.0	45.0	756.9785
162.00000000000003	45.0	763.8008
161.00000000000003	45.0	771.9424
160.0	45.0	781.5855
159.0	45.0	792.8893
158.00000000000003	45.0	805.9828
157.00000000000003	45.0	820.9574
156.00000000000003	45.0	837.8606
154.99999999999997	45.0	856.691
154.0	45.0	877.3944
153.00000000000003	45.0	899.8614
152.0	45.0	923.9264
150.99999999999997	45.0	949.3691
150.0	45.0	975.9167
149.0	45.0	1003.249
148.0	45.0	1031.0043
147.00000000000003	45.0	1058.787
146.0	45.0	1086.1772
145.0	45.0	1112.7405
144.00000000000003	45.0	1138.0393
143.0	45.0	1161.644
142.0	45.0	1183.1449
140.99999999999997	45.0	1202.163
140.00000000000003	45.0	1218.3618
139.00000000000003	45.0	1231.456
138.00000000000003	45.0	1241.2208
137.0	45.0	1247.4987
136.0	45.0	1250.2046
135.00000000000003	45.0	1249.3295
134.00000000000003	45.0	1244.9408
132.99999999999997	45.0	1237.1826
131.99999999999997	45.0	1226.2712
131.00000000000003	45.0	1212.4911
130.00000000000003	45.0	1196.1873
129.00000000000003	45.0	1177.757
128.0	45.0	1157.6389
126.99999999999999	45.0	1136.3026
126.00000000000003	45.0	1114.2359
125.00000000000004	45.0	1091.9331
123.99999999999997	45.0	1069.8816
122.99999999999999	45.0	1048.5506
122.0	45.0	1028.379
121.0	45.0	1009.7652
120.00000000000001	45.0	993.0579
119.0	45.0	978.5486
118.00000000000001	45.0	966.4653
117.00000000000003	45.0	956.9691
116.00000000000004	45.0	950.1515
115.0	45.0	946.0348
114.00000000000001	45.0	944.5737
113.00000000000001	45.0	945.6588
112.00000000000003	45.0	949.1217
111.00000000000004	45.0	954.742
110.0	45.0	962.2546
109.00000000000001	45.0	971.3586
108.00000000000003	45.0	981.7265
107.00000000000004	45.0	993.0137
106.0	45.0	1004.8683
105.0	45.0	1016.9399
104.00000000000001	45.0	1028.8889
103.00000000000001	45.0	1040.3942
102.00000000000003	45.0	1051.1602
100.99999999999999	45.0	1060.9229
100.0	45.0	1069.4549
99.00000000000001	45.0	1076.5684
98.00000000000003	45.0	1082.1178
96.99999999999999	45.0	1086.0005
96.0	45.0	1088.1571
95.0	45.0	1088.5697
94.00000000000001	45.0	1087.2599
93.00000000000003	45.0	1084.286
91.99999999999999	45.0	1079.739
91.0	45.0	1073.739
90.0	0.0	1095.152
89.29291116952395	0.7071426817872533	1095.9058
88.58593006627854	1.4145007934175506	1095.4808
87.87916453235917	2.122289895867879	1093.7939
87.1727226397129	2.8307258121018455	1090.8037
86.4667128053692	3.540024757356371	1086.5127
85.76124390703504	4.250403468570711	1080.9688
85.05642539917308	4.962079332655645	1074.2645
84.3523674296794	5.675270513286652	1066.5363
83.64918095727445	6.390196075887154	1057.9614
82.94697786971682	7.107076110446535	1048.7538
82.24587110294536	7.826131851792348	1039.1591
81.54597476125012	8.547585796906942	1029.4479
80.84740423856572	9.271661818845425	1019.9083
80.15027634097487	9.998585276774412	1010.8378
79.45470941050044	10.728583121609057	1002.5337
78.76082345025607	11.461883996679509	995.2846
78.0687402510143	12.198718332806749	989.3599
77.37858351923944	12.939318437111838	985.0014
76.69047900661849	13.683918574821595	982.4139
76.00455464110858	14.432755043267381	981.7569
75.32094065950206	15.186066237202516	983.1381
74.63976974149092	15.944092704486447	986.6073
73.96117714519126	16.707077191101824	992.152
73.28530084406378	17.47526467438212	999.6955
72.61228166514054	18.2489023832344	1009.0958
71.94226342843773	19.028239804042187	1020.1476
71.27539308740191	19.813528670829413	1032.5852
70.61182087020094	20.605022938156644	1046.0887
69.95170042163069	21.402978735106455	1060.2906
69.29518894536457	22.207654298596484	1074.7859
68.64244734622547	23.019309884136224	1089.1419
67.99364037210603	23.838207652018653	1102.9107
67.34893675510656	24.664611526811417	1115.6414
66.70850935139694	25.498787027884514	1126.894
66.07253527924108	26.34100106858589	1136.2524
65.44119605454999	27.191521721553002	1143.3372
64.81467772324949	28.05061794753063	1147.8185
64.19317098966519	28.918559284955432	1149.4266
63.57687134003648	29.79561549746857	1147.9616
62.965979160175145	30.68205617643342	1143.3011
62.36069984618289	31.5781502954692	1135.4053
61.761243907035045	32.484165713968785	1124.3206
61.16782705772538	33.400368626554155	1110.1791
60.58067030155157	34.32702295544232	1093.1973
59.99999999999999	35.264389682754654	1073.6708
59.42604792856702	36.212726119908915	1051.9666
58.8590513167294	37.17228511139536	1028.5144
58.29925287015328	38.143314170462425	1003.7938
57.74690077310915	39.12605454453247	978.3219
57.20224866894282	40.12074020854298	952.6381
56.66555561634145	41.12759678487194	927.2886
56.13708601903233	42.14684038906587	902.811
55.61710952646371	43.178676401255004	879.7187
55.10590090294487	44.223298163918535	858.4858
54.60373986267208	45.28088560756104	839.5333
54.11091086804023	46.3516038068849	823.2178
53.62770288864506	47.435601471194154	809.8207
53.154409118419395	48.53300937404573	799.5412
52.691326648427214	49.643938728569864	792.4909
52.23875609296496	50.76847951640774	788.6921
51.79700116679687	51.90669877984987	788.0782
51.36636821158484	53.05863888848747	790.4972
50.94716566986906	54.22431579349069	795.7183
50.539703505316	55.40371728447302	803.4402
50.14429256838126	56.59680126575802	813.3024
49.76124390703504	57.80349407069134	824.8977
49.390868022772075	59.02368883439022	837.7864
49.03347407277117	60.25724394694163	851.5108
48.68936901978189	61.503981610489745	865.6111
48.35885673209022	62.76368652482927	879.64
48.04223703674405	64.03610472697835	893.1771
47.73980473009234	65.32094261067617	905.8419
47.45184855059514	66.61786615176922	917.3057
47.178650119779434	67.92650036495783	927.3004
46.920482858129056	69.2464290163152	935.6261
46.677610883583455	70.57719461432482	942.155
46.450287901158305	71.91829869987819	946.8337
46.23875609296496	73.2692024527246	949.682
46.043245018569806	74.62932762827676	950.7892
45.86397053617525	75.99805783448308	950.3078
45.701133755495384	77.37474015373697	948.4458
45.554920033420714	78.7586871095844	945.4555
45.42549802359849	80.14917897242118	941.6225
45.31301879088406	81.5454663925662	937.2525
45.21761500123496	82.94677334320139	932.6578
45.1394001970194	84.35230034984485	928.1446
45.07846816689916	85.76122797743554	923.9992
45.03489241843145	87.17272054092642	920.4767
45.00872576033472	88.58593000067151	917.7901
45.0	90.0	916.1018
45.00872576033472	91.41406999932849	915.5166
45.03489241843145	92.82727945907358	916.0779
45.07846816689916	94.23877202256445	917.7655
45.1394001970194	95.64769965015516	920.4966
45.21761500123496	97.05322665679864	924.1293
45.31301879088406	98.45453360743382	928.4676
45.42549802359848	99.85082102757882	933.2704
45.554920033420714	101.2413128904156	938.26
45.701133755495384	102.62525984626303	943.1345
45.86397053617525	104.00194216551692	947.5791
46.043245018569806	105.37067237172324	951.2798
46.238756092964955	106.73079754727539	953.9359
46.450287901158305	108.08170130012182	955.2732
46.677610883583455	109.42280538567519	955.0552
46.920482858129056	110.7535709836848	953.0944
47.178650119779434	112.07349963504215	949.2608
47.45184855059512	113.38213384823077	943.4888
47.73980473009234	114.67905738932384	935.7824
48.04223703674405	115.96389527302166	926.2171
48.3588567320902	117.23631347517073	914.9396
48.68936901978189	118.49601838951025	902.1657
49.03347407277117	119.74275605305839	888.1746
49.39086802277208	120.9763111656098	873.3019
49.76124390703504	122.19650592930867	857.9301
50.14429256838125	123.40319873424197	842.4779
50.539703505316005	124.59628271552698	827.3876
50.94716566986905	125.77568420650928	813.1123
51.36636821158484	126.94136111151253	800.1019
51.79700116679685	128.09330122015012	788.79
52.23875609296496	129.23152048359225	779.5803
52.691326648427214	130.35606127143015	772.8348
53.154409118419395	131.46699062595425	768.8623
53.62770288864506	132.56439852880584	767.9096
54.11091086804023	133.64839619311508	770.1532
54.60373986267208	134.71911439243897	775.6946
55.10590090294487	135.7767018360815	784.5569
55.617109526463715	136.821323598745	796.6837
56.13708601903233	137.8531596109341	811.9405
56.66555561634144	138.87240321512806	830.1188
57.20224866894282	139.879259791457	850.9411
57.74690077310915	140.87394545546752	874.0693
58.29925287015328	141.85668582953758	899.1128
58.8590513167294	142.82771488860465	925.6399
59.42604792856702	143.7872738800911	953.1885
59.99999999999999	144.73561031724535	981.2785
60.58067030155157	145.6729770445577	1009.4237
61.16782705772538	146.59963137344585	1037.1439
61.76124390703503	147.5158342860312	1063.9767
62.36069984618289	148.4218497045308	1089.4883
62.96597916017513	149.31794382356657	1113.2831
63.57687134003648	150.20438450253144	1135.0123
64.19317098966519	151.08144071504458	1154.3809
64.81467772324949	151.9493820524694	1171.1532
65.44119605454999	152.808478278447	1185.1564
66.0725352792411	153.65899893141415	1196.2825
66.70850935139694	154.5012129721155	1204.4887
67.34893675510656	155.3353884731886	1209.7961
67.99364037210603	156.16179234798136	1212.2865
68.64244734622547	156.98069011586378	1212.0984
69.29518894536457	157.79234570140352	1209.4215
69.95170042163069	158.59702126489356	1204.4898
70.61182087020094	159.39497706184335	1197.5747
71.2753930874019	160.1864713291706	1188.9767
71.94226342843773	160.9717601959578	1179.0174
72.61228166514054	161.7510976167656	1168.0309
73.28530084406377	162.52473532561788	1156.3553
73.96117714519126	163.29292280889817	1144.3247
74.63976974149092	164.05590729551355	1132.2616
75.32094065950206	164.8139337627975	1120.4692
76.00455464110858	165.56724495673262	1109.2256
76.6904790066185	166.31608142517842	1098.778
77.37858351923944	167.06068156288816	1089.3376
78.0687402510143	167.80128166719328	1081.0764
78.76082345025605	168.5381160033205	1074.1242
79.45470941050044	169.27141687839094	1068.567
80.15027634097487	170.0014147232256	1064.4464
80.84740423856572	170.72833818115458	1061.7599
81.54597476125012	171.45241420309307	1060.4624
82.24587110294536	172.17386814820765	1060.4687
82.94697786971682	172.8929238895535	1061.6563
83.64918095727445	173.60980392411287	1063.8701
84.3523674296794	174.32472948671335	1066.9266
85.05642539917308	175.03792066734437	1070.6199
85.76124390703502	175.7495965314293	1074.7274
86.4667128053692	176.45997524264365	1079.016
87.17272263971289	177.16927418789817	1083.2493
87.87916453235917	177.87771010413212	1087.194
88.58593006627854	178.58549920658245	1090.6266
89.29291116952395	179.29285731821275	1093.3406
90.0	180.0	1095.152
90.70708883047607	180.70714268178725	1095.9058
91.41406993372146	181.41450079341755	1095.4808
92.12083546764083	182.12228989586788	1093.7939
92.82727736028711	182.83072581210183	1090.8037
93.5332871946308	183.54002475735635	1086.5127
94.23875609296496	184.2504034685707	1080.9688
94.94357460082692	184.96207933265563	1074.2645
95.64763257032061	185.67527051328665	1066.5363
96.35081904272555	186.39019607588713	1057.9614
97.05302213028318	187.1070761104465	1048.7538
97.75412889705464	187.82613185179233	1039.1591
98.45402523874989	188.54758579690696	1029.4479
99.15259576143428	189.27166181884542	1019.9083
99.84972365902512	189.9985852767744	1010.8378
100.54529058949956	190.72858312160906	1002.5337
101.23917654974393	191.4618839966795	995.2846
101.93125974898571	192.19871833280675	989.3599
102.62141648076054	192.93931843711184	985.0014
103.30952099338153	193.68391857482158	982.4139
103.99544535889142	194.43275504326738	981.7569
104.67905934049796	195.18606623720254	983.1381
105.36023025850908	195.94409270448645	986.6073
106.03882285480874	196.7070771911018	992.152
106.71469915593623	197.4752646743821	999.6955
107.38771833485946	198.2489023832344	1009.0958
108.05773657156229	199.0282398040422	1020.1476
108.7246069125981	199.8135286708294	1032.5852
109.38817912979906	200.60502293815665	1046.0887
110.04829957836931	201.40297873510644	1060.2906
110.70481105463544	202.20765429859648	1074.7859
111.35755265377453	203.01930988413622	1089.1419
112.00635962789397	203.83820765201864	1102.9107
112.65106324489344	204.6646115268114	1115.6414
113.29149064860306	205.49878702788448	1126.894
113.92746472075892	206.34100106858588	1136.2524
114.55880394545001	207.191521721553	1143.3372
115.18532227675053	208.05061794753064	1147.8185
115.8068290103348	208.91855928495542	1149.4266
116.42312865996352	209.79561549746856	1147.9616
117.03402083982486	210.68205617643343	1143.3011
117.63930015381712	211.5781502954692	1135.4053
118.23875609296496	212.48416571396876	1124.3206
118.83217294227461	213.40036862655413	1110.1791
119.41932969844842	214.32702295544232	1093.1973
120.00000000000001	215.26438968275463	1073.6708
120.573952071433	216.2127261199089	1051.9666
121.14094868327061	217.17228511139535	1028.5144
121.70074712984672	218.14331417046245	1003.7938
122.25309922689084	219.12605454453248	978.3219
122.79775133105717	220.12074020854297	952.6381
123.33444438365854	221.1275967848719	927.2886
123.86291398096766	222.1468403890659	902.811
124.38289047353629	223.17867640125502	879.7187
124.89409909705513	224.2232981639185	858.4858
125.39626013732791	225.28088560756103	839.5333
125.88908913195978	226.35160380688492	823.2178
126.37229711135494	227.43560147119416	809.8207
126.84559088158062	228.53300937404572	799.5412
127.30867335157278	229.64393872856982	792.4909
127.76124390703504	230.7684795164077	788.6921
128.20299883320317	231.90669877984988	788.0782
128.6336317884152	233.05863888848748	790.4972
129.05283433013093	234.2243157934907	795.7183
129.460296494684	235.40371728447298	803.4402
129.85570743161875	236.59680126575802	813.3024
130.23875609296496	237.80349407069136	824.8977
130.60913197722795	239.0236888343902	837.7864
130.96652592722884	240.25724394694157	851.5108
131.31063098021812	241.50398161048972	865.6111
131.6411432679098	242.7636865248293	879.64
131.95776296325596	244.03610472697835	893.1771
132.26019526990768	245.32094261067616	905.8419
132.54815144940486	246.6178661517692	917.3057
132.8213498802206	247.92650036495786	927.3004
133.07951714187095	249.2464290163152	935.6261
133.32238911641656	250.5771946143248	942.155
133.5497120988417	251.91829869987816	946.8337
133.76124390703504	253.26920245272458	949.682
133.9567549814302	254.62932762827677	950.7892
134.13602946382477	255.99805783448306	950.3078
134.2988662445046	257.374740153737	948.4458
134.44507996657927	258.75868710958434	945.4555
134.57450197640154	260.14917897242117	941.6225
134.68698120911597	261.5454663925662	937.2525
134.78238499876502	262.94677334320136	932.6578
134.8605998029806	264.3523003498448	928.1446
134.92153183310086	265.7612279774355	923.9992
134.96510758156856	267.17272054092643	920.4767
134.99127423966527	268.5859300006715	917.7901
135.0	270.0	916.1018
134.99127423966527	271.4140699993285	915.5166
134.96510758156856	272.82727945907357	916.0779
134.92153183310086	274.2387720225645	917.7655
134.8605998029806	275.6476996501551	920.4966
134.78238499876502	277.0532266567986	924.1293
134.68698120911597	278.45453360743375	928.4676
134.57450197640154	279.85082102757883	933.2704
134.44507996657927	281.2413128904156	938.26
134.2988662445046	282.625259846263	943.1345
134.13602946382477	284.0019421655169	947.5791
133.9567549814302	285.37067237172323	951.2798
133.76124390703504	286.7307975472754	953.9359
133.5497120988417	288.08170130012184	955.2732
133.32238911641656	289.42280538567513	955.0552
133.07951714187095	290.75357098368477	953.0944
132.82134988022057	292.0734996350422	949.2608
132.54815144940488	293.38213384823075	943.4888
132.26019526990768	294.6790573893238	935.7824
131.95776296325596	295.9638952730216	926.2171
131.6411432679098	297.23631347517073	914.9396
131.31063098021812	298.49601838951025	902.1657
130.96652592722884	299.7427560530584	888.1746
130.60913197722795	300.9763111656098	873.3019
130.23875609296496	302.1965059293086	857.9301
129.85570743161873	303.403198734242	842.4779
129.46029649468403	304.59628271552697	827.3876
129.05283433013096	305.7756842065093	813.1123
128.6336317884152	306.9413611115125	800.1019
128.20299883320317	308.0933012201501	788.79
127.76124390703505	309.23152048359225	779.5803
127.3086733515728	310.3560612714301	772.8348
126.84559088158062	311.4669906259543	768.8623
126.37229711135495	312.5643985288058	767.9096
125.88908913195978	313.6483961931151	770.1532
125.39626013732794	314.71911439243894	775.6946
124.89409909705515	315.77670183608143	784.5569
124.38289047353632	316.821323598745	796.6837
123.86291398096766	317.85315961093414	811.9405
123.33444438365856	318.8724032151281	830.1188
122.7977513310572	319.879259791457	850.9411
122.25309922689087	320.8739454554675	874.0693
121.70074712984675	321.8566858295375	899.1128
121.14094868327061	322.82771488860465	925.6399
120.57395207143298	323.7872738800911	953.1885
120.00000000000001	324.73561031724535	981.2785
119.41932969844845	325.6729770445577	1009.4237
118.83217294227461	326.59963137344585	1037.1439
118.23875609296496	327.51583428603124	1063.9767
117.63930015381712	328.4218497045308	1089.4883
117.03402083982486	329.31794382356657	1113.2831
116.42312865996352	330.2043845025314	1135.0123
115.8068290103348	331.08144071504455	1154.3809
115.18532227675053	331.9493820524694	1171.1532
114.55880394545002	332.808478278447	1185.1564
113.92746472075895	333.6589989314141	1196.2825
113.29149064860304	334.5012129721155	1204.4887
112.65106324489344	335.3353884731886	1209.7961
112.00635962789399	336.16179234798136	1212.2865
111.35755265377455	336.98069011586375	1212.0984
110.70481105463546	337.79234570140346	1209.4215
110.04829957836931	338.59702126489356	1204.4898
109.38817912979906	339.39497706184335	1197.5747
108.7246069125981	340.18647132917056	1188.9767
108.05773657156229	340.9717601959578	1179.0174
107.38771833485946	341.7510976167656	1168.0309
106.71469915593623	342.5247353256179	1156.3553
106.03882285480876	343.2929228088982	1144.3247
105.36023025850909	344.0559072955135	1132.2616
104.67905934049797	344.8139337627975	1120.4692
103.99544535889142	345.5672449567326	1109.2256
103.30952099338151	346.3160814251784	1098.778
102.62141648076056	347.06068156288813	1089.3376
101.93125974898572	347.8012816671932	1081.0764
101.23917654974393	348.5381160033205	1074.1242
100.54529058949956	349.27141687839094	1068.567
99.84972365902513	350.0014147232256	1064.4464
99.15259576143428	350.7283381811546	1061.7599
98.4540252387499	351.45241420309304	1060.4624
97.75412889705464	352.17386814820765	1060.4687
97.05302213028318	352.89292388955346	1061.6563
96.35081904272556	353.60980392411284	1063.8701
95.64763257032062	354.32472948671335	1066.9266
94.94357460082692	355.03792066734434	1070.6199
94.23875609296496	355.7495965314293	1074.7274
93.53328719463082	356.4599752426436	1079.016
92.82727736028713	357.16927418789817	1083.2493
92.12083546764086	357.8777101041321	1087.194
91.41406993372146	358.5854992065825	1090.6266
90.70708883047607	359.2928573182127	1093.3406
90.0	90.0	704.3058
89.29291116952395	89.29285731821274	701.3633
88.58593006627854	88.58549920658245	699.5202
87.87916453235917	87.87771010413212	698.7373
87.1727226397129	87.16927418789815	698.971
86.4667128053692	86.45997524264364	700.1759
85.76124390703504	85.74959653142929	702.3066
85.05642539917308	85.03792066734437	705.3188
84.3523674296794	84.32472948671335	709.1701
83.64918095727445	83.60980392411285	713.8198
82.94697786971682	82.89292388955346	719.2281
82.24587110294536	82.17386814820766	725.3552
81.54597476125012	81.45241420309306	732.1596
80.84740423856572	80.72833818115458	739.5962
80.15027634097487	80.0014147232256	747.6146
79.45470941050044	79.27141687839094	756.1573
78.76082345025607	78.5381160033205	765.1582
78.0687402510143	77.80128166719327	774.5416
77.37858351923944	77.06068156288816	784.2218
76.69047900661849	76.31608142517841	794.103
76.00455464110858	75.56724495673262	804.0809
75.32094065950206	74.81393376279749	814.0442
74.63976974149092	74.05590729551355	823.8769
73.96117714519126	73.29292280889818	833.4622
73.28530084406378	72.52473532561788	842.6858
72.61228166514054	71.7510976167656	851.4405
71.94226342843773	70.97176019595781	859.6306
71.27539308740191	70.18647132917059	867.1768
70.61182087020094	69.39497706184336	874.0204
69.95170042163069	68.59702126489356	880.127
69.29518894536457	67.79234570140352	885.4903
68.64244734622547	66.98069011586378	890.1346
67.99364037210603	66.16179234798135	894.1154
67.34893675510656	65.33538847318859	897.5206
66.70850935139694	64.50121297211548	900.4685
66.07253527924108	63.65899893141411	903.1058
65.44119605454999	62.808478278447	905.6037
64.81467772324949	61.94938205246937	908.1528
64.19317098966519	61.081440715044565	910.9567
63.57687134003648	60.20438450253143	914.2253
62.965979160175145	59.31794382356658	918.1666
62.36069984618289	58.4218497045308	922.9787
61.761243907035045	57.515834286031215	928.8416
61.16782705772538	56.59963137344585	935.9088
60.58067030155157	55.67297704455769	944.3001
59.99999999999999	54.735610317245346	954.0952
59.42604792856702	53.787273880091085	965.328
58.8590513167294	52.827714888604646	977.9826
58.29925287015328	51.85668582953758	991.9918
57.74690077310915	50.87394545546753	1007.2359
57.20224866894282	49.87925979145702	1023.5445
56.66555561634145	48.87240321512806	1040.7002
56.13708601903233	47.85315961093413	1058.4434
55.61710952646371	46.821323598745	1076.4794
55.10590090294487	45.776701836081465	1094.4872
54.60373986267208	44.71911439243896	1112.1283
54.11091086804023	43.6483961931151	1129.058
53.62770288864506	42.564398528805846	1144.9358
53.154409118419395	41.46699062595427	1159.4368
52.691326648427214	40.356061271430136	1172.2621
52.23875609296496	39.23152048359226	1183.1488
51.79700116679687	38.09330122015014	1191.8791
51.36636821158484	36.941361111512535	1198.2874
50.94716566986906	35.77568420650932	1202.2659
50.539703505316	34.59628271552699	1203.7683
50.14429256838126	33.40319873424199	1202.8112
49.76124390703504	32.19650592930866	1199.4736
49.390868022772075	30.976311165609783	1193.8936
49.03347407277117	29.742756053058372	1186.2635
48.68936901978189	28.496018389510258	1176.8231
48.35885673209022	27.236313475170732	1165.8509
48.04223703674405	25.963895273021652	1153.6543
47.73980473009234	24.679057389323834	1140.5591
47.45184855059514	23.382133848230776	1126.8977
47.178650119779434	22.07349963504216	1112.9983
46.920482858129056	20.753570983684796	1099.1736
46.677610883583455	19.422805385675183	1085.7109
46.450287901158305	18.08170130012181	1072.8631
46.23875609296496	16.730797547275397	1060.8412
46.043245018569806	15.370672371723243	1049.8091
45.86397053617525	14.001942165516926	1039.8798
45.701133755495384	12.625259846263035	1031.1144
45.554920033420714	11.241312890415616	1023.5228
45.42549802359849	9.850821027578828	1017.0668
45.31301879088406	8.454533607433808	1011.6653
45.21761500123496	7.053226656798624	1007.2009
45.1394001970194	5.647699650155149	1003.5284
45.07846816689916	4.238772022564465	1000.4839
45.03489241843145	2.8272794590735852	997.8952
45.00872576033472	1.414069999328503	995.5917
45.0	4.961562726608714e-15	993.415
45.00872576033472	358.5859300006715	991.2277
45.03489241843145	357.17272054092643	988.9222
45.07846816689916	355.76122797743557	986.4274
45.1394001970194	354.3523003498448	983.7139
45.21761500123496	352.94677334320136	980.7969
45.31301879088406	351.5454663925662	977.7374
45.42549802359848	350.14917897242117	974.6408
45.554920033420714	348.7586871095844	971.6533
45.701133755495384	347.374740153737	968.9565
45.86397053617525	345.99805783448306	966.7601
46.043245018569806	344.62932762827677	965.2927
46.238756092964955	343.26920245272464	964.7915
46.450287901158305	341.91829869987816	965.4917
46.677610883583455	340.5771946143248	967.6151
46.920482858129056	339.2464290163152	971.3588
47.178650119779434	337.92650036495786	976.8845
47.45184855059512	336.61786615176925	984.3096
47.73980473009234	335.3209426106762	993.6987
48.04223703674405	334.03610472697835	1005.0576
48.3588567320902	332.76368652482927	1018.3292
48.68936901978189	331.50398161048975	1033.392
49.03347407277117	330.2572439469416	1050.0605
49.39086802277208	329.0236888343902	1068.0887
49.76124390703504	327.80349407069133	1087.1755
50.14429256838125	326.596801265758	1106.9726
50.539703505316005	325.40371728447303	1127.0939
50.94716566986905	324.2243157934907	1147.1268
51.36636821158484	323.05863888848745	1166.645
51.79700116679685	321.9066987798499	1185.2213
52.23875609296496	320.76847951640775	1202.441
52.691326648427214	319.6439387285699	1217.9152
53.154409118419395	318.5330093740457	1231.293
53.62770288864506	317.43560147119416	1242.2728
54.11091086804023	316.3516038068849	1250.6116
54.60373986267208	315.28088560756106	1256.1329
55.10590090294487	314.2232981639185	1258.7317
55.617109526463715	313.17867640125496	1258.3774
56.13708601903233	312.14684038906586	1255.1141
56.66555561634144	311.12759678487197	1249.0587
57.20224866894282	310.120740208543	1240.3957
57.74690077310915	309.1260545445325	1229.3706
58.29925287015328	308.1433141704624	1216.2811
58.8590513167294	307.17228511139535	1201.466
59.42604792856702	306.2127261199089	1185.2943
59.99999999999999	305.26438968275465	1168.1518
60.58067030155157	304.3270229554423	1150.4288
61.16782705772538	303.40036862655415	1132.5068
61.76124390703503	302.4841657139688	1114.747
62.36069984618289	301.5781502954692	1097.4789
62.96597916017513	300.68205617643343	1080.9905
63.57687134003648	299.7956154974686	1065.5207
64.19317098966519	298.91855928495545	1051.2532
64.81467772324949	298.0506179475306	1038.3127
65.44119605454999	297.191521721553	1026.7635
66.0725352792411	296.3410010685859	1016.6104
66.70850935139694	295.49878702788453	1007.8012
67.34893675510656	294.6646115268114	1000.2316
67.99364037210603	293.83820765201864	993.7523
68.64244734622547	293.0193098841362	988.1762
69.29518894536457	292.2076542985965	983.2881
69.95170042163069	291.40297873510644	978.8543
70.61182087020094	290.60502293815665	974.6323
71.2753930874019	289.81352867082944	970.3815
71.94226342843773	289.0282398040422	965.8721
72.61228166514054	288.2489023832344	960.894
73.28530084406377	287.4752646743821	955.2643
73.96117714519126	286.7070771911018	948.8334
74.63976974149092	285.9440927044865	941.49
75.32094065950206	285.1860662372025	933.1637
76.00455464110858	284.4327550432674	923.8262
76.6904790066185	283.6839185748216	913.4915
77.37858351923944	282.93931843711187	902.2133
78.0687402510143	282.1987183328067	890.0817
78.76082345025605	281.4618839966795	877.219
79.45470941050044	280.72858312160906	863.7739
80.15027634097487	279.9985852767744	849.9152
80.84740423856572	279.2716618188454	835.8253
81.54597476125012	278.54758579690696	821.6936
82.24587110294536	277.82613185179235	807.7098
82.94697786971682	277.10707611044654	794.0579
83.64918095727445	276.39019607588716	780.9109
84.3523674296794	275.67527051328665	768.4263
85.05642539917308	274.96207933265566	756.7422
85.76124390703502	274.2504034685707	745.9753
86.4667128053692	273.5400247573564	736.2194
87.17272263971289	272.83072581210183	727.5446
87.87916453235917	272.1222898958679	719.9987
88.58593006627854	271.4145007934176	713.608
89.29291116952395	270.7071426817872	708.38
90.0	270.0	704.3058
90.70708883047607	269.2928573182127	701.3633
91.41406993372146	268.5854992065824	699.5202
92.12083546764083	267.8777101041321	698.7373
92.82727736028711	267.16927418789817	698.971
93.5332871946308	266.4599752426436	700.1759
94.23875609296496	265.7495965314293	702.3066
94.94357460082692	265.03792066734434	705.3188
95.64763257032061	264.32472948671335	709.1701
96.35081904272555	263.60980392411284	713.8198
97.05302213028318	262.89292388955346	719.2281
97.75412889705464	262.17386814820765	725.3552
98.45402523874989	261.45241420309304	732.1596
99.15259576143428	260.7283381811546	739.5962
99.84972365902512	260.0014147232256	747.6146
100.54529058949956	259.27141687839094	756.1573
101.23917654974393	258.5381160033205	765.1582
101.93125974898571	257.8012816671933	774.5416
102.62141648076054	257.06068156288813	784.2218
103.30952099338153	256.31608142517837	794.103
103.99544535889142	255.56724495673262	804.0809
104.67905934049796	254.8139337627975	814.0442
105.36023025850908	254.05590729551355	823.8769
106.03882285480874	253.2929228088982	833.4622
106.71469915593623	252.52473532561788	842.6858
107.38771833485946	251.7510976167656	851.4405
108.05773657156229	250.9717601959578	859.6306
108.7246069125981	250.18647132917056	867.1768
109.38817912979906	249.39497706184335	874.0204
110.04829957836931	248.59702126489356	880.127
110.70481105463544	247.79234570140352	885.4903
111.35755265377453	246.98069011586378	890.1346
112.00635962789397	246.16179234798136	894.1154
112.65106324489344	245.33538847318857	897.5206
113.29149064860306	244.50121297211547	900.4685
113.92746472075892	243.6589989314141	903.1058
114.55880394545001	242.808478278447	905.6037
115.18532227675053	241.9493820524694	908.1528
115.8068290103348	241.08144071504458	910.9567
116.42312865996352	240.2043845025314	914.2253
117.03402083982486	239.31794382356657	918.1666
117.63930015381712	238.4218497045308	922.9787
118.23875609296496	237.5158342860312	928.8416
118.83217294227461	236.59963137344585	935.9088
119.41932969844842	235.67297704455768	944.3001
120.00000000000001	234.73561031724535	954.0952
120.573952071433	233.78727388009108	965.328
121.14094868327061	232.82771488860465	977.9826
121.70074712984672	231.85668582953755	991.9918
122.25309922689084	230.87394545546752	1007.2359
122.79775133105717	229.879259791457	1023.5445
123.33444438365854	228.8724032151281	1040.7002
123.86291398096766	227.8531596109341	1058.4434
124.38289047353629	226.82132359874498	1076.4794
124.89409909705513	225.7767018360815	1094.4872
125.39626013732791	224.71911439243897	1112.1283
125.88908913195978	223.64839619311508	1129.058
126.37229711135494	222.56439852880584	1144.9358
126.84559088158062	221.46699062595428	1159.4368
127.30867335157278	220.35606127143015	1172.2621
127.76124390703504	219.23152048359228	1183.1488
128.20299883320317	218.0933012201501	1191.8791
128.6336317884152	216.94136111151252	1198.2874
129.05283433013093	215.7756842065093	1202.2659
129.460296494684	214.59628271552702	1203.7683
129.85570743161875	213.40319873424195	1202.8112
130.23875609296496	212.19650592930864	1199.4736
130.60913197722795	210.9763111656098	1193.8936
130.96652592722884	209.74275605305837	1186.2635
131.31063098021812	208.49601838951028	1176.8231
131.6411432679098	207.2363134751707	1165.8509
131.95776296325596	205.96389527302162	1153.6543
132.26019526990768	204.67905738932384	1140.5591
132.54815144940486	203.38213384823078	1126.8977
132.8213498802206	202.07349963504214	1112.9983
133.07951714187095	200.75357098368477	1099.1736
133.32238911641656	199.4228053856752	1085.7109
133.5497120988417	198.08170130012184	1072.8631
133.76124390703504	196.73079754727542	1060.8412
133.9567549814302	195.3706723717232	1049.8091
134.13602946382477	194.0019421655169	1039.8798
134.2988662445046	192.62525984626305	1031.1144
134.44507996657927	191.24131289041563	1023.5228
134.57450197640154	189.8508210275788	1017.0668
134.68698120911597	188.4545336074338	1011.6653
134.78238499876502	187.0532266567986	1007.2009
134.8605998029806	185.64769965015518	1003.5284
134.92153183310086	184.2387720225645	1000.4839
134.96510758156856	182.82727945907357	997.8952
134.99127423966527	181.4140699993285	995.5917
135.0	180.0	993.415
134.99127423966527	178.58593000067157	991.2277
134.96510758156856	177.1727205409264	988.9222
134.92153183310086	175.76122797743554	986.4274
134.8605998029806	174.35230034984485	983.7139
134.78238499876502	172.94677334320141	980.7969
134.68698120911597	171.54546639256625	977.7374
134.57450197640154	170.14917897242117	974.6408
134.44507996657927	168.7586871095844	971.6533
134.2988662445046	167.37474015373698	968.9565
134.13602946382477	165.9980578344831	966.7601
133.9567549814302	164.62932762827674	965.2927
133.76124390703504	163.2692024527246	964.7915
133.5497120988417	161.9182986998782	965.4917
133.32238911641656	160.57719461432484	967.6151
133.07951714187095	159.24642901631526	971.3588
132.82134988022057	157.92650036495783	976.8845
132.54815144940488	156.61786615176925	984.3096
132.26019526990768	155.32094261067618	993.6987
131.95776296325596	154.03610472697838	1005.0576
131.6411432679098	152.76368652482927	1018.3292
131.31063098021812	151.50398161048975	1033.392
130.96652592722884	150.25724394694163	1050.0605
130.60913197722795	149.02368883439024	1068.0887
130.23875609296496	147.80349407069139	1087.1755
129.85570743161873	146.596801265758	1106.9726
129.46029649468403	145.403717284473	1127.0939
129.05283433013096	144.22431579349072	1147.1268
128.6336317884152	143.0586388884875	1166.645
128.20299883320317	141.90669877984988	1185.2213
127.76124390703505	140.76847951640775	1202.441
127.3086733515728	139.64393872856988	1217.9152
126.84559088158062	138.53300937404575	1231.293
126.37229711135495	137.4356014711942	1242.2728
125.88908913195978	136.35160380688492	1250.6116
125.39626013732794	135.28088560756106	1256.1329
124.89409909705515	134.22329816391854	1258.7317
124.38289047353632	133.17867640125502	1258.3774
123.86291398096766	132.14684038906586	1255.1141
123.33444438365856	131.12759678487194	1249.0587
122.7977513310572	130.120740208543	1240.3957
122.25309922689087	129.12605454453248	1229.3706
121.70074712984675	128.14331417046245	1216.2811
121.14094868327061	127.17228511139534	1201.466
120.57395207143298	126.21272611990892	1185.2943
120.00000000000001	125.26438968275468	1168.1518
119.41932969844845	124.32702295544235	1150.4288
118.83217294227461	123.40036862655414	1132.5068
118.23875609296496	122.48416571396879	1114.747
117.63930015381712	121.57815029546921	1097.4789
117.03402083982486	120.68205617643345	1080.9905
116.42312865996352	119.79561549746859	1065.5207
115.8068290103348	118.91855928495542	1051.2532
115.18532227675053	118.05061794753063	1038.3127
114.55880394545002	117.19152172155302	1026.7635
113.92746472075895	116.34100106858591	1016.6104
113.29149064860304	115.49878702788452	1007.8012
112.65106324489344	114.66461152681141	1000.2316
112.00635962789399	113.83820765201867	993.7523
111.35755265377455	113.01930988413625	988.1762
110.70481105463546	112.20765429859652	983.2881
110.04829957836931	111.40297873510644	978.8543
109.38817912979906	110.60502293815665	974.6323
108.7246069125981	109.81352867082943	970.3815
108.05773657156229	109.02823980404222	965.8721
107.38771833485946	108.2489023832344	960.894
106.71469915593623	107.47526467438213	955.2643
106.03882285480876	106.70707719110183	948.8334
105.36023025850909	105.94409270448648	941.49
104.67905934049797	105.18606623720254	933.1637
103.99544535889142	104.43275504326738	923.8262
103.30952099338151	103.68391857482159	913.4915
102.62141648076056	102.93931843711185	902.2133
101.93125974898572	102.19871833280676	890.0817
101.23917654974393	101.4618839966795	877.219
100.54529058949956	100.72858312160906	863.7739
99.84972365902513	99.99858527677442	849.9152
99.15259576143428	99.27166181884544	835.8253
98.4540252387499	98.54758579690696	821.6936
97.75412889705464	97.82613185179234	807.7098
97.05302213028318	97.10707611044654	794.0579
96.35081904272556	96.39019607588716	780.9109
95.64763257032062	95.67527051328666	768.4263
94.94357460082692	94.96207933265563	756.7422
94.23875609296496	94.25040346857071	745.9753
93.53328719463082	93.54002475735638	736.2194
92.82727736028713	92.83072581210186	727.5446
92.12083546764086	92.12228989586791	719.9987
91.41406993372146	91.41450079341756	713.608
90.70708883047607	90.70714268178726	708.38
90.0	0.0	697.274
90.0	1.0	690.9847
90.0	2.0	686.3554
90.0	3.0000000000000004	683.4403
90.0	4.0	682.291
90.0	5.0	682.9545
90.0	6.000000000000001	685.4709
90.0	7.0	689.8708
90.0	8.0	696.1722
90.0	9.0	704.3784
90.0	10.0	714.4749
90.0	11.0	726.4272
90.0	12.0	740.1791
90.0	13.0	755.6507
90.0	14.0	772.7381
90.0	14.999999999999998	791.3125
90.0	16.0	811.2209
90.0	17.000000000000004	832.2872
90.0	18.0	854.3141
90.0	19.0	877.0853
90.0	20.0	900.369
90.0	21.0	923.9217
90.0	22.0	947.4921
90.0	23.0	970.826
90.0	24.000000000000004	993.6712
90.0	25.0	1015.7827
90.0	26.0	1036.9273
90.0	26.999999999999996	1056.8888
90.0	28.0	1075.4724
90.0	29.000000000000004	1092.5092
90.0	29.999999999999996	1107.8591
90.0	31.0	1121.4145
90.0	32.0	1133.1019
90.0	33.0	1142.8832
90.0	34.00000000000001	1150.7568
90.0	35.0	1156.7563
90.0	36.0	1160.9498
90.0	37.0	1163.4376
90.0	38.0	1164.3487
90.0	39.0	1163.8379
90.0	40.0	1162.0809
90.0	41.0	1159.2694
90.0	42.0	1155.6061
90.0	43.0	1151.2993
90.0	44.0	1146.5569
90.0	45.0	1141.5814
90.0	46.00000000000001	1136.5639
90.0	47.0	1131.6801
90.0	48.00000000000001	1127.0849
90.0	49.00000000000001	1122.9091
90.0	50.0	1119.256
90.0	51.0	1116.1991
90.0	52.0	1113.7806
90.0	53.0	1112.0108
90.0	54.0	1110.8683
90.0	55.0	1110.301
90.0	56.0	1110.2287
90.0	57.00000000000001	1110.5453
90.0	58.00000000000001	1111.1228
90.0	59.00000000000001	1111.8153
90.0	59.99999999999999	1112.4636
90.0	61.0	1112.9008
90.0	62.0	1112.9571
90.0	63.0	1112.4654
90.0	64.0	1111.2669
90.0	65.0	1109.2163
90.0	66.0	1106.1866
90.0	67.0	1102.0735
90.0	68.0	1096.7994
90.0	69.0	1090.3164
90.0	70.0	1082.6091
90.0	71.0	1073.6956
90.0	72.0	1063.6284
90.0	73.0	1052.4942
90.0	74.0	1040.4125
90.0	75.0	1027.5338
90.0	76.0	1014.0361
90.0	77.0	1000.1217
90.0	78.0	986.0123
90.0	79.0	971.9442
90.0	80.0	958.1625
90.0	81.0	944.9156
90.0	82.0	932.4487
90.0	83.0	920.9982
90.0	84.0	910.7852
90.0	85.0	902.0101
90.0	86.0	894.8475
90.0	87.0	889.4413
90.0	88.0	885.9007
90.0	89.0	884.2973
90.0	90.0	884.6625
90.0	91.0	886.9869
90.0	92.0	891.2193
90.0	93.0	897.268
90.0	94.0	905.003
90.0	95.0	914.258
90.0	96.00000000000001	924.835
90.0	97.0	936.509
90.0	98.0	949.033
90.0	99.0	962.1443
90.0	100.0	975.5712
90.0	101.0	989.0397
90.0	102.0	1002.2805
90.0	103.0	1015.0356
90.0	104.0	1027.0652
90.0	105.00000000000001	1038.1541
90.0	106.0	1048.1168
90.0	107.0	1056.8025
90.0	108.0	1064.0991
90.0	109.0	1069.9363
90.0	110.0	1074.2869
90.0	111.0	1077.1677
90.0	112.0	1078.6392
90.0	113.0	1078.8034
90.0	114.00000000000001	1077.8011
90.0	115.0	1075.8081
90.0	116.00000000000001	1073.0298
90.0	117.0	1069.6959
90.0	118.00000000000001	1066.0535
90.0	119.0	1062.3602
90.0	119.99999999999999	1058.8768
90.0	121.0	1055.8598
90.0	122.0	1053.5541
90.0	123.00000000000001	1052.1853
90.0	124.0	1051.954
90.0	125.00000000000001	1053.0291
90.0	126.0	1055.5428
90.0	127.00000000000001	1059.5868
90.0	128.0	1065.2086
90.0	129.0	1072.4103
90.0	130.0	1081.1474
90.0	131.0	1091.3298
90.0	132.0	1102.8233
90.0	133.0	1115.4527
90.0	134.0	1129.006
90.0	135.0	1143.239
90.0	136.0	1157.8819
90.0	137.0	1172.6451
90.0	138.0	1187.2264
90.0	139.0	1201.3185
90.0	140.0	1214.6157
90.0	141.0	1226.8217
90.0	142.0	1237.6561
90.0	143.0	1246.8608
90.0	144.0	1254.2054
90.0	145.0	1259.4924
90.0	146.0	1262.5611
90.0	147.0	1263.2899
90.0	148.0	1261.5989
90.0	149.0	1257.45
90.0	150.0	1250.8469
90.0	151.0	1241.8337
90.0	152.0	1230.4924
90.0	153.0	1216.9402
90.0	154.0	1201.325
90.0	155.0	1183.8216
90.0	156.0	1164.6265
90.0	157.0	1143.9528
90.0	158.0	1122.0254
90.0	159.0	1099.0753
90.0	160.0	1075.3355
90.0	161.0	1051.0357
90.0	162.0	1026.3991
90.0	163.0	1001.6384
90.0	164.0	976.9533
90.0	165.0	952.5285
90.0	166.0	928.5322
90.0	167.0	905.1156
90.0	168.0	882.4129
90.0	169.0	860.5423
90.0	170.0	839.6064
90.0	171.0	819.6947
90.0	172.0	800.8851
90.0	173.0	783.2459
90.0	174.0	766.8384
90.0	175.0	751.7189
90.0	176.0	737.9404
90.0	177.0	725.5545
90.0	178.0	714.613
90.0	179.0	705.1683
90.0	180.0	697.274
90.0	181.0	690.9847
90.0	181.99999999999997	686.3554
90.0	182.99999999999997	683.4403
90.0	183.99999999999997	682.291
90.0	184.99999999999997	682.9545
90.0	185.99999999999997	685.4709
90.0	186.99999999999997	689.8708
90.0	188.0	696.1722
90.0	188.99999999999997	704.3784
90.0	190.0	714.4749
90.0	190.99999999999997	726.4272
90.0	192.0	740.1791
90.0	192.99999999999997	755.6507
90.0	193.99999999999997	772.7381
90.0	194.99999999999997	791.3125
90.0	195.99999999999997	811.2209
90.0	197.0	832.2872
90.0	197.99999999999997	854.3141
90.0	199.0	877.0853
90.0	199.99999999999997	900.369
90.0	201.0	923.9217
90.0	201.99999999999997	947.4921
90.0	203.0	970.826
90.0	203.99999999999997	993.6712
90.0	204.99999999999997	1015.7827
90.0	206.0	1036.9273
90.0	206.99999999999997	1056.8888
90.0	208.0	1075.4724
90.0	208.99999999999997	1092.5092
90.0	210.0	1107.8591
90.0	210.99999999999997	1121.4145
90.0	212.0	1133.1019
90.0	212.99999999999997	1142.8832
90.0	214.0	1150.7568
90.0	215.0	1156.7563
90.0	216.0	1160.9498
90.0	217.0	1163.4376
90.0	217.99999999999997	1164.3487
90.0	219.00000000000003	1163.8379
90.0	219.99999999999997	1162.0809
90.0	220.99999999999997	1159.2694
90.0	221.99999999999997	1155.6061
90.0	223.0	1151.2993
90.0	224.0	1146.5569
90.0	224.99999999999997	1141.5814
90.0	226.0	1136.5639
90.0	227.0	1131.6801
90.0	228.0	1127.0849
90.0	229.0	1122.9091
90.0	230.0	1119.256
90.0	230.99999999999997	1116.1991
90.0	232.00000000000003	1113.7806
90.0	233.0	1112.0108
90.0	233.99999999999997	1110.8683
90.0	234.99999999999994	1110.301
90.0	236.0	1110.2287
90.0	237.0	1110.5453
90.0	238.0	1111.1228
90.0	239.0	1111.8153
90.0	239.99999999999994	1112.4636
90.0	241.0	1112.9008
90.0	242.0	1112.9571
90.0	242.99999999999997	1112.4654
90.0	243.99999999999994	1111.2669
90.0	245.0	1109.2163
90.0	246.0	1106.1866
90.0	247.0	1102.0735
90.0	248.0	1096.7994
90.0	248.99999999999997	1090.3164
90.0	250.0	1082.6091
90.0	251.0	1073.6956
90.0	252.0	1063.6284
90.0	252.99999999999997	1052.4942
90.0	254.0	1040.4125
90.0	255.0	1027.5338
90.0	256.0	1014.0361
90.0	257.0	1000.1217
90.0	258.0	986.0123
90.0	259.0	971.9442
90.0	260.0	958.1625
90.0	261.0	944.9156
90.0	262.0	932.4487
90.0	263.0	920.9982
90.0	264.0	910.7852
90.0	265.0	902.0101
90.0	266.0	894.8475
90.0	267.0	889.4413
90.0	268.0	885.9007
90.0	269.0	884.2973
90.0	270.0	884.6625
90.0	271.0	886.9869
90.0	272.0	891.2193
90.0	273.0	897.268
90.0	274.0	905.003
90.0	275.0	914.258
90.0	276.0	924.835
90.0	277.0	936.509
90.0	278.0	949.033
90.0	279.0	962.1443
90.0	280.0	975.5712
90.0	281.0	989.0397
90.0	282.0	1002.2805
90.0	283.0	1015.0356
90.0	284.0	1027.0652
90.0	285.0	1038.1541
90.0	286.0	1048.1168
90.0	287.0	1056.8025
90.0	288.0	1064.0991
90.0	289.0	1069.9363
90.0	290.0	1074.2869
90.0	291.0	1077.1677
90.0	292.0	1078.6392
90.0	293.0	1078.8034
90.0	294.0	1077.8011
90.0	295.0	1075.8081
90.0	296.0	1073.0298
90.0	297.0	1069.6959
90.0	298.0	1066.0535
90.0	299.0	1062.3602
90.0	300.0	1058.8768
90.0	301.0	1055.8598
90.0	302.0	1053.5541
90.0	303.0	1052.1853
90.0	304.0	1051.954
90.0	305.0	1053.0291
90.0	306.0	1055.5428
90.0	307.0	1059.5868
90.0	308.0	1065.2086
90.0	309.0	1072.4103
90.0	310.0	1081.1474
90.0	311.0	1091.3298
90.0	311.99999999999994	1102.8233
90.0	313.0	1115.4527
90.0	314.0	1129.006
90.0	315.0	1143.239
90.0	316.0	1157.8819
90.0	317.0	1172.6451
90.0	318.0	1187.2264
90.0	319.0	1201.3185
90.0	320.0	1214.6157
90.0	321.0	1226.8217
90.0	322.0	1237.6561
90.0	323.0	1246.8608
90.0	324.0	1254.2054
90.0	325.0	1259.4924
90.0	326.0	1262.5611
90.0	327.0	1263.2899
90.0	328.0	1261.5989
90.0	329.0	1257.45
90.0	330.0	1250.8469
90.0	331.0	1241.8337
90.0	332.0	1230.4924
90.0	333.0	1216.9402
90.0	334.0	1201.325
90.0	335.0	1183.8216
90.0	336.0	1164.6265
90.0	337.0	1143.9528
90.0	338.0	1122.0254
90.0	338.99999999999994	1099.0753
90.0	340.0	1075.3355
90.0	341.0	1051.0357
90.0	342.0	1026.3991
90.0	343.0	1001.6384
90.0	344.0	976.9533
90.0	345.0	952.5285
90.0	346.0	928.5322
90.0	347.0	905.1156
90.0	347.99999999999994	882.4129
90.0	349.0	860.5423
90.0	350.0	839.6064
90.0	351.0	819.6947
90.0	352.0	800.8851
90.0	353.0	783.2459
90.0	354.0	766.8384
90.0	355.0	751.7189
90.0	356.0	737.9404
90.0	356.99999999999994	725.5545
90.0	358.0	714.613
90.0	359.0	705.1683
