Polar Angle 	 Azimuth Angle 	 Intensity 
90.0	0.0	4596.5068
89.0	0.0	4548.8648
88.0	0.0	4473.5855
87.00000000000001	0.0	4372.3832
86.0	0.0	4247.6132
85.0	0.0	4102.1947
84.0	0.0	3939.5135
83.0	0.0	3763.31
82.0	0.0	3577.5554
81.0	0.0	3386.3227
80.0	0.0	3193.6554
79.0	0.0	3003.4417
78.00000000000001	0.0	2819.2961
77.0	0.0	2644.4556
76.0	0.0	2481.6923
75.0	0.0	2333.2474
74.0	0.0	2200.787
73.0	0.0	2085.3829
72.0	0.0	1987.5168
71.0	0.0	1907.1092
70.0	0.0	1843.5692
69.00000000000001	0.0	1795.8642
68.0	0.0	1762.6051
67.0	0.0	1742.1432
66.0	0.0	1732.6744
65.0	0.0	1732.3461
64.0	0.0	1739.3606
63.0	0.0	1752.0728
62.0	0.0	1769.075
61.0	0.0	1789.2673
60.00000000000001	0.0	1811.9096
59.00000000000001	0.0	1836.6522
58.00000000000001	0.0	1863.5458
57.00000000000001	0.0	1893.0284
55.99999999999999	0.0	1925.8909
55.00000000000001	0.0	1963.2236
54.0	0.0	2006.3444
53.00000000000001	0.0	2056.7144
52.0	0.0	2115.8425
51.00000000000001	0.0	2185.1855
50.00000000000001	0.0	2266.0469
49.00000000000001	0.0	2359.4799
48.0	0.0	2466.1994
47.0	0.0	2586.5058
46.00000000000001	0.0	2720.2266
45.0	0.0	2866.6766
44.0	0.0	3024.6401
43.0	0.0	3192.3758
42.0	0.0	3367.6451
41.0	0.0	3547.7618
40.00000000000001	0.0	3729.6636
39.0	0.0	3910.0004
37.99999999999999	0.0	4085.2371
37.0	0.0	4251.7678
36.0	0.0	4406.0342
35.0	0.0	4544.6469
34.0	0.0	4664.5009
33.0	0.0	4762.8842
31.99999999999999	0.0	4837.5727
31.0	0.0	4886.908
30.000000000000004	0.0	4909.8564
29.00000000000001	0.0	4906.0446
28.000000000000007	0.0	4875.7721
27.00000000000001	0.0	4819.9995
25.999999999999996	0.0	4740.3137
25.000000000000004	0.0	4638.8703
24.000000000000004	0.0	4518.3174
22.999999999999993	0.0	4381.7023
21.999999999999996	0.0	4232.3661
21.0	0.0	4073.8304
20.00000000000001	0.0	3909.6802
19.000000000000014	0.0	3743.4481
18.00000000000001	0.0	3578.5047
17.000000000000007	0.0	3417.9587
15.999999999999995	0.0	3264.5715
14.999999999999996	0.0	3120.6884
14.0	0.0	2988.19
12.999999999999996	0.0	2868.4638
12.000000000000018	0.0	2762.3983
10.999999999999993	0.0	2670.3976
10.000000000000012	0.0	2592.4162
8.999999999999984	0.0	2528.0113
7.999999999999981	0.0	2476.4104
7.000000000000025	0.0	2436.5892
6.000000000000026	0.0	2407.3582
4.999999999999992	0.0	2387.4508
4.000000000000042	0.0	2375.6108
3.0000000000000444	0.0	2370.6747
1.9999999999999472	0.0	2371.6439
0.9999999999999002	0.0	2377.7441
0.0	0.0	2388.4694
0.9999999999999002	180.0	2403.6085
1.9999999999999472	180.0	2423.252
3.0000000000000444	180.0	2447.7803
4.000000000000042	180.0	2477.834
4.999999999999992	180.0	2514.2657
6.000000000000026	180.0	2558.079
6.9999999999999725	180.0	2610.3542
7.999999999999981	180.0	2672.1673
8.999999999999984	180.0	2744.5042
10.000000000000012	180.0	2828.1754
10.999999999999993	180.0	2923.735
11.999999999999988	180.0	3031.4088
12.999999999999996	180.0	3151.0339
14.0	180.0	3282.0141
14.999999999999996	180.0	3423.2939
15.999999999999995	180.0	3573.3513
16.99999999999999	180.0	3730.2121
17.999999999999986	180.0	3891.4845
18.999999999999996	180.0	4054.4129
19.999999999999993	180.0	4215.9508
21.0	180.0	4372.8473
21.999999999999996	180.0	4521.7467
23.00000000000001	180.0	4659.2953
24.000000000000004	180.0	4782.2519
24.99999999999999	180.0	4887.5976
26.000000000000007	180.0	4972.6402
26.999999999999996	180.0	5035.1086
28.000000000000007	180.0	5073.2341
28.999999999999996	180.0	5085.8141
29.999999999999993	180.0	5072.2565
31.0	180.0	5032.6023
31.99999999999999	180.0	4967.526
33.0	180.0	4878.3126
34.0	180.0	4766.814
35.000000000000014	180.0	4635.3847
36.0	180.0	4486.8008
37.000000000000014	180.0	4324.1646
37.99999999999999	180.0	4150.7998
38.99999999999999	180.0	3970.1408
40.00000000000001	180.0	3785.6207
40.999999999999986	180.0	3600.5632
42.0	180.0	3418.082
43.0	180.0	3240.9919
44.00000000000001	180.0	3071.7353
45.0	180.0	2912.3266
46.000000000000014	180.0	2764.3167
47.0	180.0	2628.7778
47.999999999999986	180.0	2506.3103
49.00000000000001	180.0	2397.069
49.99999999999999	180.0	2300.8083
51.00000000000001	180.0	2216.9435
51.99999999999999	180.0	2144.6247
53.000000000000014	180.0	2082.8198
53.99999999999999	180.0	2030.402
55.000000000000014	180.0	1986.2386
55.99999999999999	180.0	1949.2755
56.999999999999986	180.0	1918.6132
58.00000000000001	180.0	1893.5723
58.99999999999999	180.0	1873.7433
60.00000000000001	180.0	1859.0187
61.0	180.0	1849.6071
62.000000000000014	180.0	1846.0263
63.0	180.0	1849.0777
64.00000000000001	180.0	1859.8016
65.0	180.0	1879.4159
65.99999999999999	180.0	1909.2412
67.0	180.0	1950.6159
68.0	180.0	2004.804
69.00000000000001	180.0	2072.9021
70.0	180.0	2155.7483
71.00000000000001	180.0	2253.8382
72.0	180.0	2367.2519
73.00000000000001	180.0	2495.5968
74.0	180.0	2637.9678
74.99999999999999	180.0	2792.9283
76.0	180.0	2958.514
77.0	180.0	3132.2585
78.00000000000001	180.0	3311.2419
79.0	180.0	3492.1607
80.00000000000001	180.0	3671.4156
81.0	180.0	3845.2154
82.00000000000001	180.0	4009.6932
83.0	180.0	4161.0282
83.99999999999999	180.0	4295.5721
85.0	180.0	4409.9718
86.0	180.0	4501.2846
87.00000000000001	180.0	4567.0822
88.0	180.0	4605.5381
89.00000000000001	180.0	4615.4943
90.0	180.0	4596.5068
91.00000000000001	180.0	4548.8648
92.0	180.0	4473.5855
92.99999999999999	180.0	4372.3832
94.0	180.0	4247.6132
95.0	180.0	4102.1947
96.00000000000001	180.0	3939.5135
97.0	180.0	3763.31
98.00000000000001	180.0	3577.5554
99.0	180.0	3386.3227
100.00000000000001	180.0	3193.6554
101.0	180.0	3003.4417
102.00000000000001	180.0	2819.2961
103.0	180.0	2644.4556
104.0	180.0	2481.6923
105.00000000000001	180.0	2333.2474
106.0	180.0	2200.787
107.00000000000001	180.0	2085.3829
108.0	180.0	1987.5168
109.00000000000001	180.0	1907.1092
110.0	180.0	1843.5692
111.00000000000001	180.0	1795.8642
112.0	180.0	1762.6051
113.0	180.0	1742.1432
114.00000000000001	180.0	1732.6744
115.0	180.0	1732.3461
116.00000000000001	180.0	1739.3606
117.0	180.0	1752.0728
118.00000000000001	180.0	1769.075
119.0	180.0	1789.2673
120.00000000000001	180.0	1811.9096
121.0	180.0	1836.6522
122.0	180.0	1863.5458
123.00000000000001	180.0	1893.0284
124.0	180.0	1925.8909
125.00000000000001	180.0	1963.2236
126.0	180.0	2006.3444
127.00000000000001	180.0	2056.7144
128.0	180.0	2115.8425
129.00000000000003	180.0	2185.1855
130.0	180.0	2266.0469
131.0	180.0	2359.4799
132.0	180.0	2466.1994
133.0	180.0	2586.5058
134.0	180.0	2720.2266
135.0	180.0	2866.6766
136.0	180.0	3024.6401
137.0	180.0	3192.3758
138.00000000000003	180.0	3367.6451
139.0	180.0	3547.7618
140.0	180.0	3729.6636
140.99999999999997	180.0	3910.0004
142.00000000000003	180.0	4085.2371
143.0	180.0	4251.7678
144.0	180.0	4406.0342
145.0	180.0	4544.6469
146.00000000000003	180.0	4664.5009
147.00000000000003	180.0	4762.8842
148.0	180.0	4837.5727
149.0	180.0	4886.908
149.99999999999997	180.0	4909.8564
151.00000000000003	180.0	4906.0446
152.0	180.0	4875.7721
153.0	180.0	4819.9995
154.0	180.0	4740.3137
155.00000000000003	180.0	4638.8703
156.00000000000003	180.0	4518.3174
157.0	180.0	4381.7023
158.0	180.0	4232.3661
158.99999999999997	180.0	4073.8304
160.00000000000003	180.0	3909.6802
161.0	180.0	3743.4481
162.0	180.0	3578.5047
163.0	180.0	3417.9587
164.00000000000003	180.0	3264.5715
165.00000000000003	180.0	3120.6884
166.0	180.0	2988.19
167.0	180.0	2868.4638
167.99999999999997	180.0	2762.3983
169.00000000000003	180.0	2670.3976
169.99999999999997	180.0	2592.4162
170.99999999999997	180.0	2528.0113
172.0	180.0	2476.4104
173.00000000000003	180.0	2436.5892
174.00000000000003	180.0	2407.3582
175.0	180.0	2387.4508
175.99999999999997	180.0	2375.6108
176.99999999999994	180.0	2370.6747
178.00000000000006	180.0	2371.6439
179.0000000000001	180.0	2377.7441
180.0	180.0	2388.4694
179.0000000000001	0.0	2403.6085
178.00000000000006	0.0	2423.252
176.99999999999994	0.0	2447.7803
176.00000000000006	0.0	2477.834
175.0	0.0	2514.2657
174.00000000000003	0.0	2558.079
172.99999999999997	0.0	2610.3542
172.0	0.0	2672.1673
171.00000000000003	0.0	2744.5042
170.00000000000003	0.0	2828.1754
168.99999999999997	0.0	2923.735
167.99999999999997	0.0	3031.4088
167.00000000000003	0.0	3151.0339
166.00000000000003	0.0	3282.0141
165.00000000000003	0.0	3423.2939
163.99999999999997	0.0	3573.3513
163.0	0.0	3730.2121
162.00000000000003	0.0	3891.4845
161.00000000000003	0.0	4054.4129
160.0	0.0	4215.9508
159.0	0.0	4372.8473
158.00000000000003	0.0	4521.7467
157.00000000000003	0.0	4659.2953
156.00000000000003	0.0	4782.2519
154.99999999999997	0.0	4887.5976
154.0	0.0	4972.6402
153.00000000000003	0.0	5035.1086
152.0	0.0	5073.2341
150.99999999999997	0.0	5085.8141
150.0	0.0	5072.2565
149.0	0.0	5032.6023
148.0	0.0	4967.526
147.00000000000003	0.0	4878.3126
146.0	0.0	4766.814
145.0	0.0	4635.3847
144.00000000000003	0.0	4486.8008
143.0	0.0	4324.1646
142.0	0.0	4150.7998
140.99999999999997	0.0	3970.1408
140.00000000000003	0.0	3785.6207
139.00000000000003	0.0	3600.5632
138.00000000000003	0.0	3418.082
137.0	0.0	3240.9919
136.0	0.0	3071.7353
135.00000000000003	0.0	2912.3266
134.00000000000003	0.0	2764.3167
132.99999999999997	0.0	2628.7778
131.99999999999997	0.0	2506.3103
131.00000000000003	0.0	2397.069
130.00000000000003	0.0	2300.8083
129.00000000000003	0.0	2216.9435
128.0	0.0	2144.6247
126.99999999999999	0.0	2082.8198
126.00000000000003	0.0	2030.402
125.00000000000004	0.0	1986.2386
123.99999999999997	0.0	1949.2755
122.99999999999999	0.0	1918.6132
122.0	0.0	1893.5723
121.0	0.0	1873.7433
120.00000000000001	0.0	1859.0187
119.0	0.0	1849.6071
118.00000000000001	0.0	1846.0263
117.00000000000003	0.0	1849.0777
116.00000000000004	0.0	1859.8016
115.0	0.0	1879.4159
114.00000000000001	0.0	1909.2412
113.00000000000001	0.0	1950.6159
112.00000000000003	0.0	2004.804
111.00000000000004	0.0	2072.9021
110.0	0.0	2155.7483
109.00000000000001	0.0	2253.8382
108.00000000000003	0.0	2367.2519
107.00000000000004	0.0	2495.5968
106.0	0.0	2637.9678
105.0	0.0	2792.9283
104.00000000000001	0.0	2958.514
103.00000000000001	0.0	3132.2585
102.00000000000003	0.0	3311.2419
100.99999999999999	0.0	3492.1607
100.0	0.0	3671.4156
99.00000000000001	0.0	3845.2154
98.00000000000003	0.0	4009.6932
96.99999999999999	0.0	4161.0282
96.0	0.0	4295.5721
95.0	0.0	4409.9718
94.00000000000001	0.0	4501.2846
93.00000000000003	0.0	4567.0822
91.99999999999999	0.0	4605.5381
91.0	0.0	4615.4943
90.0	90.0	1776.7909
89.0	90.0	1763.4705
88.0	90.0	1748.221
87.00000000000001	90.0	1731.3027
86.0	90.0	1713.0797
85.0	90.0	1694.0097
84.0	90.0	1674.6291
83.0	90.0	1655.5348
82.0	90.0	1637.3639
81.0	90.0	1620.7706
80.0	90.0	1606.4019
79.0	90.0	1594.8745
78.00000000000001	90.0	1586.7506
77.0	90.0	1582.5171
76.0	90.0	1582.5663
75.0	90.0	1587.1807
74.0	90.0	1596.5211
73.0	90.0	1610.6202
72.0	90.0	1629.3796
71.0	90.0	1652.573
70.0	90.0	1679.8534
69.00000000000001	90.0	1710.7651
68.0	90.0	1744.7596
67.0	90.0	1781.2148
66.0	90.0	1819.4571
65.0	90.0	1858.7854
64.0	90.0	1898.495
63.0	90.0	1937.9028
62.0	90.0	1976.3698
61.0	90.0	2013.3229
60.00000000000001	90.0	2048.2731
59.00000000000001	90.0	2080.8302
58.00000000000001	90.0	2110.7136
57.00000000000001	90.0	2137.7584
55.99999999999999	90.0	2161.9171
55.00000000000001	90.0	2183.2558
54.0	90.0	2201.9468
53.00000000000001	90.0	2218.2563
52.0	90.0	2232.5293
51.00000000000001	90.0	2245.17
50.00000000000001	90.0	2256.6222
49.00000000000001	90.0	2267.3464
48.0	90.0	2277.7978
47.0	90.0	2288.4047
46.00000000000001	90.0	2299.5478
45.0	90.0	2311.5424
44.0	90.0	2324.6237
43.0	90.0	2338.9352
42.0	90.0	2354.5217
41.0	90.0	2371.3266
40.00000000000001	90.0	2389.1933
39.0	90.0	2407.8711
37.99999999999999	90.0	2427.0253
37.0	90.0	2446.2509
36.0	90.0	2465.0889
35.0	90.0	2483.0456
34.0	90.0	2499.6124
33.0	90.0	2514.2873
31.99999999999999	90.0	2526.5957
31.0	90.0	2536.1097
30.000000000000004	90.0	2542.4664
29.00000000000001	90.0	2545.3828
28.000000000000007	90.0	2544.6681
27.00000000000001	90.0	2540.232
25.999999999999996	90.0	2532.0892
25.000000000000004	90.0	2520.36
24.000000000000004	90.0	2505.2664
22.999999999999993	90.0	2487.1251
21.999999999999996	90.0	2466.3363
21.0	90.0	2443.3703
20.00000000000001	90.0	2418.751
19.000000000000014	90.0	2393.0384
18.00000000000001	90.0	2366.8099
17.000000000000007	90.0	2340.6415
15.999999999999995	90.0	2315.0897
14.999999999999996	90.0	2290.6749
14.0	90.0	2267.8666
12.999999999999996	90.0	2247.0709
12.000000000000018	90.0	2228.6219
10.999999999999993	90.0	2212.7752
10.000000000000012	90.0	2199.7055
8.999999999999984	90.0	2189.5071
7.999999999999981	90.0	2182.198
7.000000000000025	90.0	2177.7263
6.000000000000026	90.0	2175.9797
4.999999999999992	90.0	2176.7962
4.000000000000042	90.0	2179.9765
3.0000000000000444	90.0	2185.297
1.9999999999999472	90.0	2192.5231
0.9999999999999002	90.0	2201.4208
0.0	90.0	2211.7686
0.9999999999999002	270.0	2223.3666
1.9999999999999472	270.0	2236.0437
3.0000000000000444	270.0	2249.6624
4.000000000000042	270.0	2264.1211
4.999999999999992	270.0	2279.3536
6.000000000000026	270.0	2295.3259
6.9999999999999725	270.0	2312.0311
7.999999999999981	270.0	2329.4819
8.999999999999984	270.0	2347.7015
10.000000000000012	270.0	2366.7143
10.999999999999993	270.0	2386.5349
11.999999999999988	270.0	2407.1581
12.999999999999996	270.0	2428.5499
14.0	270.0	2450.6387
14.999999999999996	270.0	2473.3093
15.999999999999995	270.0	2496.399
16.99999999999999	270.0	2519.6956
17.999999999999986	270.0	2542.9386
18.999999999999996	270.0	2565.8235
19.999999999999993	270.0	2588.0075
21.0	270.0	2609.1191
21.999999999999996	270.0	2628.7692
23.00000000000001	270.0	2646.563
24.000000000000004	270.0	2662.1147
24.99999999999999	270.0	2675.0613
26.000000000000007	270.0	2685.0769
26.999999999999996	270.0	2691.8859
28.000000000000007	270.0	2695.2751
28.999999999999996	270.0	2695.1034
29.999999999999993	270.0	2691.3095
31.0	270.0	2683.9163
31.99999999999999	270.0	2673.0322
33.0	270.0	2658.8493
34.0	270.0	2641.6382
35.000000000000014	270.0	2621.7395
36.0	270.0	2599.5529
37.000000000000014	270.0	2575.5233
37.99999999999999	270.0	2550.1254
38.99999999999999	270.0	2523.8474
40.00000000000001	270.0	2497.1728
40.999999999999986	270.0	2470.5644
42.0	270.0	2444.447
43.0	270.0	2419.1932
44.00000000000001	270.0	2395.1108
45.0	270.0	2372.4332
46.000000000000014	270.0	2351.3121
47.0	270.0	2331.8151
47.999999999999986	270.0	2313.9254
49.00000000000001	270.0	2297.5463
49.99999999999999	270.0	2282.5079
51.00000000000001	270.0	2268.5781
51.99999999999999	270.0	2255.4754
53.000000000000014	270.0	2242.8839
53.99999999999999	270.0	2230.4699
55.000000000000014	270.0	2217.8992
55.99999999999999	270.0	2204.8539
56.999999999999986	270.0	2191.0488
58.00000000000001	270.0	2176.2456
58.99999999999999	270.0	2160.266
60.00000000000001	270.0	2143.0006
61.0	270.0	2124.4155
62.000000000000014	270.0	2104.5549
63.0	270.0	2083.5403
64.00000000000001	270.0	2061.566
65.0	270.0	2038.8906
65.99999999999999	270.0	2015.8261
67.0	270.0	1992.724
68.0	270.0	1969.9591
69.00000000000001	270.0	1947.9124
70.0	270.0	1926.9535
71.00000000000001	270.0	1907.4224
72.0	270.0	1889.6133
73.00000000000001	270.0	1873.76
74.0	270.0	1860.0232
74.99999999999999	270.0	1848.4817
76.0	270.0	1839.127
77.0	270.0	1831.8611
78.00000000000001	270.0	1826.499
79.0	270.0	1822.7755
80.00000000000001	270.0	1820.3547
81.0	270.0	1818.8437
82.00000000000001	270.0	1817.8094
83.0	270.0	1816.7967
83.99999999999999	270.0	1815.3487
85.0	270.0	1813.0278
86.0	270.0	1809.4357
87.00000000000001	270.0	1804.2327
88.0	270.0	1797.1558
89.00000000000001	270.0	1788.0321
90.0	270.0	1776.7909
91.00000000000001	270.0	1763.4705
92.0	270.0	1748.221
92.99999999999999	270.0	1731.3027
94.0	270.0	1713.0797
95.0	270.0	1694.0097
96.00000000000001	270.0	1674.6291
97.0	270.0	1655.5348
98.00000000000001	270.0	1637.3639
99.0	270.0	1620.7706
100.00000000000001	270.0	1606.4019
101.0	270.0	1594.8745
102.00000000000001	270.0	1586.7506
103.0	270.0	1582.5171
104.0	270.0	1582.5663
105.00000000000001	270.0	1587.1807
106.0	270.0	1596.5211
107.00000000000001	270.0	1610.6202
108.0	270.0	1629.3796
109.00000000000001	270.0	1652.573
110.0	270.0	1679.8534
111.00000000000001	270.0	1710.7651
112.0	270.0	1744.7596
113.0	270.0	1781.2148
114.00000000000001	270.0	1819.4571
115.0	270.0	1858.7854
116.00000000000001	270.0	1898.495
117.0	270.0	1937.9028
118.00000000000001	270.0	1976.3698
119.0	270.0	2013.3229
120.00000000000001	270.0	2048.2731
121.0	270.0	2080.8302
122.0	270.0	2110.7136
123.00000000000001	270.0	2137.7584
124.0	270.0	2161.9171
125.00000000000001	270.0	2183.2558
126.0	270.0	2201.9468
127.00000000000001	270.0	2218.2563
128.0	270.0	2232.5293
129.00000000000003	270.0	2245.17
130.0	270.0	2256.6222
131.0	270.0	2267.3464
132.0	270.0	2277.7978
133.0	270.0	2288.4047
134.0	270.0	2299.5478
135.0	270.0	2311.5424
136.0	270.0	2324.6237
137.0	270.0	2338.9352
138.00000000000003	270.0	2354.5217
139.0	270.0	2371.3266
140.0	270.0	2389.1933
140.99999999999997	270.0	2407.8711
142.00000000000003	270.0	2427.0253
143.0	270.0	2446.2509
144.0	270.0	2465.0889
145.0	270.0	2483.0456
146.00000000000003	270.0	2499.6124
147.00000000000003	270.0	2514.2873
148.0	270.0	2526.5957
149.0	270.0	2536.1097
149.99999999999997	270.0	2542.4664
151.00000000000003	270.0	2545.3828
152.0	270.0	2544.6681
153.0	270.0	2540.232
154.0	270.0	2532.0892
155.00000000000003	270.0	2520.36
156.00000000000003	270.0	2505.2664
157.0	270.0	2487.1251
158.0	270.0	2466.3363
158.99999999999997	270.0	2443.3703
160.00000000000003	270.0	2418.751
161.0	270.0	2393.0384
162.0	270.0	2366.8099
163.0	270.0	2340.6415
164.00000000000003	270.0	2315.0897
165.00000000000003	270.0	2290.6749
166.0	270.0	2267.8666
167.0	270.0	2247.0709
167.99999999999997	270.0	2228.6219
169.00000000000003	270.0	2212.7752
169.99999999999997	270.0	2199.7055
170.99999999999997	270.0	2189.5071
172.0	270.0	2182.198
173.00000000000003	270.0	2177.7263
174.00000000000003	270.0	2175.9797
175.0	270.0	2176.7962
175.99999999999997	270.0	2179.9765
176.99999999999994	270.0	2185.297
178.00000000000006	270.0	2192.5231
179.0000000000001	270.0	2201.4208
180.0	270.0	2211.7686
179.0000000000001	90.0	2223.3666
178.00000000000006	90.0	2236.0437
176.99999999999994	90.0	2249.6624
176.00000000000006	90.0	2264.1211
175.0	90.0	2279.3536
174.00000000000003	90.0	2295.3259
172.99999999999997	90.0	2312.0311
172.0	90.0	2329.4819
171.00000000000003	90.0	2347.7015
170.00000000000003	90.0	2366.7143
168.99999999999997	90.0	2386.5349
167.99999999999997	90.0	2407.1581
167.00000000000003	90.0	2428.5499
166.00000000000003	90.0	2450.6387
165.00000000000003	90.0	2473.3093
163.99999999999997	90.0	2496.399
163.0	90.0	2519.6956
162.00000000000003	90.0	2542.9386
161.00000000000003	90.0	2565.8235
160.0	90.0	2588.0075
159.0	90.0	2609.1191
158.00000000000003	90.0	2628.7692
157.00000000000003	90.0	2646.563
156.00000000000003	90.0	2662.1147
154.99999999999997	90.0	2675.0613
154.0	90.0	2685.0769
153.00000000000003	90.0	2691.8859
152.0	90.0	2695.2751
150.99999999999997	90.0	2695.1034
150.0	90.0	2691.3095
149.0	90.0	2683.9163
148.0	90.0	2673.0322
147.00000000000003	90.0	2658.8493
146.0	90.0	2641.6382
145.0	90.0	2621.7395
144.00000000000003	90.0	2599.5529
143.0	90.0	2575.5233
142.0	90.0	2550.1254
140.99999999999997	90.0	2523.8474
140.00000000000003	90.0	2497.1728
139.00000000000003	90.0	2470.5644
138.00000000000003	90.0	2444.447
137.0	90.0	2419.1932
136.0	90.0	2395.1108
135.00000000000003	90.0	2372.4332
134.00000000000003	90.0	2351.3121
132.99999999999997	90.0	2331.8151
131.99999999999997	90.0	2313.9254
131.00000000000003	90.0	2297.5463
130.00000000000003	90.0	2282.5079
129.00000000000003	90.0	2268.5781
128.0	90.0	2255.4754
126.99999999999999	90.0	2242.8839
126.00000000000003	90.0	2230.4699
125.00000000000004	90.0	2217.8992
123.99999999999997	90.0	2204.8539
122.99999999999999	90.0	2191.0488
122.0	90.0	2176.2456
121.0	90.0	2160.266
120.00000000000001	90.0	2143.0006
119.0	90.0	2124.4155
118.00000000000001	90.0	2104.5549
117.00000000000003	90.0	2083.5403
116.00000000000004	90.0	2061.566
115.0	90.0	2038.8906
114.00000000000001	90.0	2015.8261
113.00000000000001	90.0	1992.724
112.00000000000003	90.0	1969.9591
111.00000000000004	90.0	1947.9124
110.0	90.0	1926.9535
109.00000000000001	90.0	1907.4224
108.00000000000003	90.0	1889.6133
107.00000000000004	90.0	1873.76
106.0	90.0	1860.0232
105.0	90.0	1848.4817
104.00000000000001	90.0	1839.127
103.00000000000001	90.0	1831.8611
102.00000000000003	90.0	1826.499
100.99999999999999	90.0	1822.7755
100.0	90.0	1820.3547
99.00000000000001	90.0	1818.8437
98.00000000000003	90.0	1817.8094
96.99999999999999	90.0	1816.7967
96.0	90.0	1815.3487
95.0	90.0	1813.0278
94.00000000000001	90.0	1809.4357
93.00000000000003	90.0	1804.2327
91.99999999999999	90.0	1797.1558
91.0	90.0	1788.0321
90.0	45.0	2405.3229
89.0	45.0	2394.2988
88.0	45.0	2377.7444
87.00000000000001	45.0	2356.061
86.0	45.0	2329.7742
85.0	45.0	2299.5168
84.0	45.0	2266.009
83.0	45.0	2230.0357
82.0	45.0	2192.4233
81.0	45.0	2154.015
80.0	45.0	2115.648
79.0	45.0	2078.1312
78.00000000000001	45.0	2042.2256
77.0	45.0	2008.628
76.0	45.0	1977.9577
75.0	45.0	1950.748
74.0	45.0	1927.4413
73.0	45.0	1908.3887
72.0	45.0	1893.8528
71.0	45.0	1884.0155
70.0	45.0	1878.9871
69.00000000000001	45.0	1878.8187
68.0	45.0	1883.5158
67.0	45.0	1893.0523
66.0	45.0	1907.3843
65.0	45.0	1926.463
64.0	45.0	1950.2448
63.0	45.0	1978.7001
62.0	45.0	2011.8175
61.0	45.0	2049.6056
60.00000000000001	45.0	2092.0904
59.00000000000001	45.0	2139.3092
58.00000000000001	45.0	2191.3011
57.00000000000001	45.0	2248.0946
55.99999999999999	45.0	2309.6924
55.00000000000001	45.0	2376.0554
54.0	45.0	2447.0844
53.00000000000001	45.0	2522.6038
52.0	45.0	2602.3451
51.00000000000001	45.0	2685.9335
50.00000000000001	45.0	2772.8766
49.00000000000001	45.0	2862.5581
48.0	45.0	2954.2352
47.0	45.0	3047.0412
46.00000000000001	45.0	3139.9939
45.0	45.0	3232.0087
44.0	45.0	3321.9175
43.0	45.0	3408.4916
42.0	45.0	3490.4693
41.0	45.0	3566.5868
40.00000000000001	45.0	3635.6105
39.0	45.0	3696.3715
37.99999999999999	45.0	3747.7991
37.0	45.0	3788.9531
36.0	45.0	3819.0539
35.0	45.0	3837.5077
34.0	45.0	3843.9278
33.0	45.0	3838.1497
31.99999999999999	45.0	3820.2397
31.0	45.0	3790.4964
30.000000000000004	45.0	3749.4458
29.00000000000001	45.0	3697.8286
28.000000000000007	45.0	3636.5813
27.00000000000001	45.0	3566.8114
25.999999999999996	45.0	3489.7669
25.000000000000004	45.0	3406.8024
24.000000000000004	45.0	3319.3423
22.999999999999993	45.0	3228.8417
21.999999999999996	45.0	3136.7484
21.0	45.0	3044.4653
20.00000000000001	45.0	2953.3159
19.000000000000014	45.0	2864.5137
18.00000000000001	45.0	2779.1363
17.000000000000007	45.0	2698.1058
15.999999999999995	45.0	2622.1754
14.999999999999996	45.0	2551.9229
14.0	45.0	2487.7514
12.999999999999996	45.0	2429.8961
12.000000000000018	45.0	2378.438
10.999999999999993	45.0	2333.3231
10.000000000000012	45.0	2294.3852
8.999999999999984	45.0	2261.3737
7.999999999999981	45.0	2233.9816
7.000000000000025	45.0	2211.8759
6.000000000000026	45.0	2194.7263
4.999999999999992	45.0	2182.2322
4.000000000000042	45.0	2174.1465
3.0000000000000444	45.0	2170.295
1.9999999999999472	45.0	2170.5901
0.9999999999999002	45.0	2175.0394
0.0	45.0	2183.7467
0.9999999999999002	225.0	2196.9079
1.9999999999999472	225.0	2214.7994
3.0000000000000444	225.0	2237.7613
4.000000000000042	225.0	2266.1752
4.999999999999992	225.0	2300.438
6.000000000000026	225.0	2340.9324
6.9999999999999725	225.0	2387.9959
7.999999999999981	225.0	2441.8896
8.999999999999984	225.0	2502.7679
10.000000000000012	225.0	2570.651
10.999999999999993	225.0	2645.4008
11.999999999999988	225.0	2726.7027
12.999999999999996	225.0	2814.0526
14.0	225.0	2906.7512
14.999999999999996	225.0	3003.9057
15.999999999999995	225.0	3104.4385
16.99999999999999	225.0	3207.1037
17.999999999999986	225.0	3310.5107
18.999999999999996	225.0	3413.1535
19.999999999999993	225.0	3513.4459
21.0	225.0	3609.7606
21.999999999999996	225.0	3700.4709
23.00000000000001	225.0	3783.9946
24.000000000000004	225.0	3858.836
24.99999999999999	225.0	3923.6281
26.000000000000007	225.0	3977.1703
26.999999999999996	225.0	4018.4617
28.000000000000007	225.0	4046.7287
28.999999999999996	225.0	4061.4463
29.999999999999993	225.0	4062.3508
31.0	225.0	4049.4461
31.99999999999999	225.0	4023.0002
33.0	225.0	3983.5355
34.0	225.0	3931.8102
35.000000000000014	225.0	3868.7943
36.0	225.0	3795.6389
37.000000000000014	225.0	3713.6414
37.99999999999999	225.0	3624.2071
38.99999999999999	225.0	3528.8097
40.00000000000001	225.0	3428.9506
40.999999999999986	225.0	3326.1199
42.0	225.0	3221.759
43.0	225.0	3117.228
44.00000000000001	225.0	3013.7766
45.0	225.0	2912.5216
46.000000000000014	225.0	2814.4295
47.0	225.0	2720.306
47.999999999999986	225.0	2630.7923
49.00000000000001	225.0	2546.367
49.99999999999999	225.0	2467.3541
51.00000000000001	225.0	2393.9362
51.99999999999999	225.0	2326.1719
53.000000000000014	225.0	2264.0161
53.99999999999999	225.0	2207.3425
55.000000000000014	225.0	2155.9675
55.99999999999999	225.0	2109.6732
56.999999999999986	225.0	2068.2292
58.00000000000001	225.0	2031.4121
58.99999999999999	225.0	1999.022
60.00000000000001	225.0	1970.8947
61.0	225.0	1946.9096
62.000000000000014	225.0	1926.9935
63.0	225.0	1911.1192
64.00000000000001	225.0	1899.3001
65.0	225.0	1891.5806
65.99999999999999	225.0	1888.0234
67.0	225.0	1888.6947
68.0	225.0	1893.6468
69.00000000000001	225.0	1902.9007
70.0	225.0	1916.4294
71.00000000000001	225.0	1934.1418
72.0	225.0	1955.8697
73.00000000000001	225.0	1981.357
74.0	225.0	2010.2535
74.99999999999999	225.0	2042.1123
76.0	225.0	2076.3922
77.0	225.0	2112.4646
78.00000000000001	225.0	2149.6244
79.0	225.0	2187.1057
80.00000000000001	225.0	2224.1002
81.0	225.0	2259.7795
82.00000000000001	225.0	2293.3181
83.0	225.0	2323.9184
83.99999999999999	225.0	2350.8356
85.0	225.0	2373.4006
86.0	225.0	2391.0423
87.00000000000001	225.0	2403.3064
88.0	225.0	2409.8699
89.00000000000001	225.0	2410.5527
90.0	225.0	2405.3229
91.00000000000001	225.0	2394.2988
92.0	225.0	2377.7444
92.99999999999999	225.0	2356.061
94.0	225.0	2329.7742
95.0	225.0	2299.5168
96.00000000000001	225.0	2266.009
97.0	225.0	2230.0357
98.00000000000001	225.0	2192.4233
99.0	225.0	2154.015
100.00000000000001	225.0	2115.648
101.0	225.0	2078.1312
102.00000000000001	225.0	2042.2256
103.0	225.0	2008.628
104.0	225.0	1977.9577
105.00000000000001	225.0	1950.748
106.0	225.0	1927.4413
107.00000000000001	225.0	1908.3887
108.0	225.0	1893.8528
109.00000000000001	225.0	1884.0155
110.0	225.0	1878.9871
111.00000000000001	225.0	1878.8187
112.0	225.0	1883.5158
113.0	225.0	1893.0523
114.00000000000001	225.0	1907.3843
115.0	225.0	1926.463
116.00000000000001	225.0	1950.2448
117.0	225.0	1978.7001
118.00000000000001	225.0	2011.8175
119.0	225.0	2049.6056
120.00000000000001	225.0	2092.0904
121.0	225.0	2139.3092
122.0	225.0	2191.3011
123.00000000000001	225.0	2248.0946
124.0	225.0	2309.6924
125.00000000000001	225.0	2376.0554
126.0	225.0	2447.0844
127.00000000000001	225.0	2522.6038
128.0	225.0	2602.3451
129.00000000000003	225.0	2685.9335
130.0	225.0	2772.8766
131.0	225.0	2862.5581
132.0	225.0	2954.2352
133.0	225.0	3047.0412
134.0	225.0	3139.9939
135.0	225.0	3232.0087
136.0	225.0	3321.9175
137.0	225.0	3408.4916
138.00000000000003	225.0	3490.4693
139.0	225.0	3566.5868
140.0	225.0	3635.6105
140.99999999999997	225.0	3696.3715
142.00000000000003	225.0	3747.7991
143.0	225.0	3788.9531
144.0	225.0	3819.0539
145.0	225.0	3837.5077
146.00000000000003	225.0	3843.9278
147.00000000000003	225.0	3838.1497
148.0	225.0	3820.2397
149.0	225.0	3790.4964
149.99999999999997	225.0	3749.4458
151.00000000000003	225.0	3697.8286
152.0	225.0	3636.5813
153.0	225.0	3566.8114
154.0	225.0	3489.7669
155.00000000000003	225.0	3406.8024
156.00000000000003	225.0	3319.3423
157.0	225.0	3228.8417
158.0	225.0	3136.7484
158.99999999999997	225.0	3044.4653
160.00000000000003	225.0	2953.3159
161.0	225.0	2864.5137
162.0	225.0	2779.1363
163.0	225.0	2698.1058
164.00000000000003	225.0	2622.1754
165.00000000000003	225.0	2551.9229
166.0	225.0	2487.7514
167.0	225.0	2429.8961
167.99999999999997	225.0	2378.438
169.00000000000003	225.0	2333.3231
169.99999999999997	225.0	2294.3852
170.99999999999997	225.0	2261.3737
172.0	225.0	2233.9816
173.00000000000003	225.0	2211.8759
174.00000000000003	225.0	2194.7263
175.0	225.0	2182.2322
175.99999999999997	225.0	2174.1465
176.99999999999994	225.0	2170.295
178.00000000000006	225.0	2170.5901
179.0000000000001	225.0	2175.0394
180.0	225.0	2183.7467
179.0000000000001	45.0	2196.9079
178.00000000000006	45.0	2214.7994
176.99999999999994	45.0	2237.7613
176.00000000000006	45.0	2266.1752
175.0	45.0	2300.438
174.00000000000003	45.0	2340.9324
172.99999999999997	45.0	2387.9959
172.0	45.0	2441.8896
171.00000000000003	45.0	2502.7679
170.00000000000003	45.0	2570.651
168.99999999999997	45.0	2645.4008
167.99999999999997	45.0	2726.7027
167.00000000000003	45.0	2814.0526
166.00000000000003	45.0	2906.7512
165.00000000000003	45.0	3003.9057
163.99999999999997	45.0	3104.4385
163.0	45.0	3207.1037
162.00000000000003	45.0	3310.5107
161.00000000000003	45.0	3413.1535
160.0	45.0	3513.4459
159.0	45.0	3609.7606
158.00000000000003	45.0	3700.4709
157.00000000000003	45.0	3783.9946
156.00000000000003	45.0	3858.836
154.99999999999997	45.0	3923.6281
154.0	45.0	3977.1703
153.00000000000003	45.0	4018.4617
152.0	45.0	4046.7287
150.99999999999997	45.0	4061.4463
150.0	45.0	4062.3508
149.0	45.0	4049.4461
148.0	45.0	4023.0002
147.00000000000003	45.0	3983.5355
146.0	45.0	3931.8102
145.0	45.0	3868.7943
144.00000000000003	45.0	3795.6389
143.0	45.0	3713.6414
142.0	45.0	3624.2071
140.99999999999997	45.0	3528.8097
140.00000000000003	45.0	3428.9506
139.00000000000003	45.0	3326.1199
138.00000000000003	45.0	3221.759
137.0	45.0	3117.228
136.0	45.0	3013.7766
135.00000000000003	45.0	2912.5216
134.00000000000003	45.0	2814.4295
132.99999999999997	45.0	2720.306
131.99999999999997	45.0	2630.7923
131.00000000000003	45.0	2546.367
130.00000000000003	45.0	2467.3541
129.00000000000003	45.0	2393.9362
128.0	45.0	2326.1719
126.99999999999999	45.0	2264.0161
126.00000000000003	45.0	2207.3425
125.00000000000004	45.0	2155.9675
123.99999999999997	45.0	2109.6732
122.99999999999999	45.0	2068.2292
122.0	45.0	2031.4121
121.0	45.0	1999.022
120.00000000000001	45.0	1970.8947
119.0	45.0	1946.9096
118.00000000000001	45.0	1926.9935
117.00000000000003	45.0	1911.1192
116.00000000000004	45.0	1899.3001
115.0	45.0	1891.5806
114.00000000000001	45.0	1888.0234
113.00000000000001	45.0	1888.6947
112.00000000000003	45.0	1893.6468
111.00000000000004	45.0	1902.9007
110.0	45.0	1916.4294
109.00000000000001	45.0	1934.1418
108.00000000000003	45.0	1955.8697
107.00000000000004	45.0	1981.357
106.0	45.0	2010.2535
105.0	45.0	2042.1123
104.00000000000001	45.0	2076.3922
103.00000000000001	45.0	2112.4646
102.00000000000003	45.0	2149.6244
100.99999999999999	45.0	2187.1057
100.0	45.0	2224.1002
99.00000000000001	45.0	2259.7795
98.00000000000003	45.0	2293.3181
96.99999999999999	45.0	2323.9184
96.0	45.0	2350.8356
95.0	45.0	2373.4006
94.00000000000001	45.0	2391.0423
93.00000000000003	45.0	2403.3064
91.99999999999999	45.0	2409.8699
91.0	45.0	2410.5527
90.0	0.0	2365.8003
89.29291116952395	0.7071426817872533	2338.0206
88.58593006627854	1.4145007934175506	2313.5546
87.87916453235917	2.122289895867879	2292.9807
87.1727226397129	2.8307258121018455	2276.8553
86.4667128053692	3.540024757356371	2265.6949
85.76124390703504	4.250403468570711	2259.956
85.05642539917308	4.962079332655645	2260.0128
84.3523674296794	5.675270513286652	2266.136
83.64918095727445	6.390196075887154	2278.4711
82.94697786971682	7.107076110446535	2297.0193
82.24587110294536	7.826131851792348	2321.6211
81.54597476125012	8.547585796906942	2351.944
80.84740423856572	9.271661818845425	2387.4762
80.15027634097487	9.998585276774412	2427.525
79.45470941050044	10.728583121609057	2471.2226
78.76082345025607	11.461883996679509	2517.5392
78.0687402510143	12.198718332806749	2565.302
77.37858351923944	12.939318437111838	2613.2215
76.69047900661849	13.683918574821595	2659.9245
76.00455464110858	14.432755043267381	2703.9909
75.32094065950206	15.186066237202516	2743.9961
74.63976974149092	15.944092704486447	2778.5554
73.96117714519126	16.707077191101824	2806.3689
73.28530084406378	17.47526467438212	2826.2671
72.61228166514054	18.2489023832344	2837.2529
71.94226342843773	19.028239804042187	2838.5402
71.27539308740191	19.813528670829413	2829.5859
70.61182087020094	20.605022938156644	2810.1159
69.95170042163069	21.402978735106455	2780.141
69.29518894536457	22.207654298596484	2739.9642
68.64244734622547	23.019309884136224	2690.1781
67.99364037210603	23.838207652018653	2631.6512
67.34893675510656	24.664611526811417	2565.5049
66.70850935139694	25.498787027884514	2493.0805
66.07253527924108	26.34100106858589	2415.8982
65.44119605454999	27.191521721553002	2335.6086
64.81467772324949	28.05061794753063	2253.9391
64.19317098966519	28.918559284955432	2172.6375
63.57687134003648	29.79561549746857	2093.4131
62.965979160175145	30.68205617643342	2017.8803
62.36069984618289	31.5781502954692	1947.5047
61.761243907035045	32.484165713968785	1883.5546
61.16782705772538	33.400368626554155	1827.0607
60.58067030155157	34.32702295544232	1778.7847
59.99999999999999	35.264389682754654	1739.198
59.42604792856702	36.212726119908915	1708.4733
58.8590513167294	37.17228511139536	1686.4868
58.29925287015328	38.143314170462425	1672.8337
57.74690077310915	39.12605454453247	1666.8554
57.20224866894282	40.12074020854298	1667.6765
56.66555561634145	41.12759678487194	1674.2523
56.13708601903233	42.14684038906587	1685.4232
55.61710952646371	43.178676401255004	1699.9744
55.10590090294487	44.223298163918535	1716.6991
54.60373986267208	45.28088560756104	1734.4613
54.11091086804023	46.3516038068849	1752.2566
53.62770288864506	47.435601471194154	1769.2682
53.154409118419395	48.53300937404573	1784.9149
52.691326648427214	49.643938728569864	1798.8903
52.23875609296496	50.76847951640774	1811.1894
51.79700116679687	51.90669877984987	1822.1233
51.36636821158484	53.05863888848747	1832.3191
50.94716566986906	54.22431579349069	1842.7062
50.539703505316	55.40371728447302	1854.4884
50.14429256838126	56.59680126575802	1869.102
49.76124390703504	57.80349407069134	1888.1628
49.390868022772075	59.02368883439022	1913.4026
49.03347407277117	60.25724394694163	1946.5972
48.68936901978189	61.503981610489745	1989.4899
48.35885673209022	62.76368652482927	2043.7122
48.04223703674405	64.03610472697835	2110.7052
47.73980473009234	65.32094261067617	2191.6448
47.45184855059514	66.61786615176922	2287.3734
47.178650119779434	67.92650036495783	2398.3417
46.920482858129056	69.2464290163152	2524.5618
46.677610883583455	70.57719461432482	2665.5752
46.450287901158305	71.91829869987819	2820.4358
46.23875609296496	73.2692024527246	2987.7102
46.043245018569806	74.62932762827676	3165.4948
45.86397053617525	75.99805783448308	3351.4497
45.701133755495384	77.37474015373697	3542.8488
45.554920033420714	78.7586871095844	3736.6446
45.42549802359849	80.14917897242118	3929.545
45.31301879088406	81.5454663925662	4118.1007
45.21761500123496	82.94677334320139	4298.7994
45.1394001970194	84.35230034984485	4468.1642
45.07846816689916	85.76122797743554	4622.8524
45.03489241843145	87.17272054092642	4759.7516
45.00872576033472	88.58593000067151	4876.0701
45.0	90.0	4969.4177
45.00872576033472	91.41406999932849	5037.875
45.03489241843145	92.82727945907358	5080.0483
45.07846816689916	94.23877202256445	5095.1087
45.1394001970194	95.64769965015516	5082.8131
45.21761500123496	97.05322665679864	5043.5087
45.31301879088406	98.45453360743382	4978.1181
45.42549802359848	99.85082102757882	4888.1082
45.554920033420714	101.2413128904156	4775.4422
45.701133755495384	102.62525984626303	4642.5181
45.86397053617525	104.00194216551692	4492.0946
46.043245018569806	105.37067237172324	4327.2083
46.238756092964955	106.73079754727539	4151.0837
46.450287901158305	108.08170130012182	3967.0409
46.677610883583455	109.42280538567519	3778.4029
46.920482858129056	110.7535709836848	3588.4057
47.178650119779434	112.07349963504215	3400.1147
47.45184855059512	113.38213384823077	3216.3499
47.73980473009234	114.67905738932384	3039.6221
48.04223703674405	115.96389527302166	2872.0814
48.3588567320902	117.23631347517073	2715.4803
48.68936901978189	118.49601838951025	2571.1518
49.03347407277117	119.74275605305839	2440.002
49.39086802277208	120.9763111656098	2322.5175
49.76124390703504	122.19650592930867	2218.7871
50.14429256838125	123.40319873424197	2128.5355
50.539703505316005	124.59628271552698	2051.1672
50.94716566986905	125.77568420650928	1985.8195
51.36636821158484	126.94136111151253	1931.4214
51.79700116679685	128.09330122015012	1886.7556
52.23875609296496	129.23152048359225	1850.5221
52.691326648427214	130.35606127143015	1821.3996
53.154409118419395	131.46699062595425	1798.1039
53.62770288864506	132.56439852880584	1779.4395
54.11091086804023	133.64839619311508	1764.3438
54.60373986267208	134.71911439243897	1751.9225
55.10590090294487	135.7767018360815	1741.4747
55.617109526463715	136.821323598745	1732.5074
56.13708601903233	137.8531596109341	1724.7393
56.66555561634144	138.87240321512806	1718.0949
57.20224866894282	139.879259791457	1712.6886
57.74690077310915	140.87394545546752	1708.8009
58.29925287015328	141.85668582953758	1706.8478
58.8590513167294	142.82771488860465	1707.3445
59.42604792856702	143.7872738800911	1710.8672
59.99999999999999	144.73561031724535	1718.0118
60.58067030155157	145.6729770445577	1729.354
61.16782705772538	146.59963137344585	1745.4118
61.76124390703503	147.5158342860312	1766.6115
62.36069984618289	148.4218497045308	1793.2586
62.96597916017513	149.31794382356657	1825.5157
63.57687134003648	150.20438450253144	1863.3869
64.19317098966519	151.08144071504458	1906.7101
64.81467772324949	151.9493820524694	1955.1562
65.44119605454999	152.808478278447	2008.2361
66.0725352792411	153.65899893141415	2065.3145
66.70850935139694	154.5012129721155	2125.6288
67.34893675510656	155.3353884731886	2188.3138
67.99364037210603	156.16179234798136	2252.429
68.64244734622547	156.98069011586378	2316.989
69.29518894536457	157.79234570140352	2380.9938
69.95170042163069	158.59702126489356	2443.4592
70.61182087020094	159.39497706184335	2503.4456
71.2753930874019	160.1864713291706	2560.0832
71.94226342843773	160.9717601959578	2612.5944
72.61228166514054	161.7510976167656	2660.3106
73.28530084406377	162.52473532561788	2702.6847
73.96117714519126	163.29292280889817	2739.2988
74.63976974149092	164.05590729551355	2769.866
75.32094065950206	164.8139337627975	2794.2282
76.00455464110858	165.56724495673262	2812.349
76.6904790066185	166.31608142517842	2824.3036
77.37858351923944	167.06068156288816	2830.266
78.0687402510143	167.80128166719328	2830.4938
78.76082345025605	168.5381160033205	2825.3129
79.45470941050044	169.27141687839094	2815.1019
80.15027634097487	170.0014147232256	2800.2771
80.84740423856572	170.72833818115458	2781.2802
81.54597476125012	171.45241420309307	2758.567
82.24587110294536	172.17386814820765	2732.5991
82.94697786971682	172.8929238895535	2703.8393
83.64918095727445	173.60980392411287	2672.7482
84.3523674296794	174.32472948671335	2639.785
85.05642539917308	175.03792066734437	2605.409
85.76124390703502	175.7495965314293	2570.0836
86.4667128053692	176.45997524264365	2534.2814
87.17272263971289	177.16927418789817	2498.4883
87.87916453235917	177.87771010413212	2463.2085
88.58593006627854	178.58549920658245	2428.9666
89.29291116952395	179.29285731821275	2396.3088
90.0	180.0	2365.8003
90.70708883047607	180.70714268178725	2338.0206
91.41406993372146	181.41450079341755	2313.5546
92.12083546764083	182.12228989586788	2292.9807
92.82727736028711	182.83072581210183	2276.8553
93.5332871946308	183.54002475735635	2265.6949
94.23875609296496	184.2504034685707	2259.956
94.94357460082692	184.96207933265563	2260.0128
95.64763257032061	185.67527051328665	2266.136
96.35081904272555	186.39019607588713	2278.4711
97.05302213028318	187.1070761104465	2297.0193
97.75412889705464	187.82613185179233	2321.6211
98.45402523874989	188.54758579690696	2351.944
99.15259576143428	189.27166181884542	2387.4762
99.84972365902512	189.9985852767744	2427.525
100.54529058949956	190.72858312160906	2471.2226
101.23917654974393	191.4618839966795	2517.5392
101.93125974898571	192.19871833280675	2565.302
102.62141648076054	192.93931843711184	2613.2215
103.30952099338153	193.68391857482158	2659.9245
103.99544535889142	194.43275504326738	2703.9909
104.67905934049796	195.18606623720254	2743.9961
105.36023025850908	195.94409270448645	2778.5554
106.03882285480874	196.7070771911018	2806.3689
106.71469915593623	197.4752646743821	2826.2671
107.38771833485946	198.2489023832344	2837.2529
108.05773657156229	199.0282398040422	2838.5402
108.7246069125981	199.8135286708294	2829.5859
109.38817912979906	200.60502293815665	2810.1159
110.04829957836931	201.40297873510644	2780.141
110.70481105463544	202.20765429859648	2739.9642
111.35755265377453	203.01930988413622	2690.1781
112.00635962789397	203.83820765201864	2631.6512
112.65106324489344	204.6646115268114	2565.5049
113.29149064860306	205.49878702788448	2493.0805
113.92746472075892	206.34100106858588	2415.8982
114.55880394545001	207.191521721553	2335.6086
115.18532227675053	208.05061794753064	2253.9391
115.8068290103348	208.91855928495542	2172.6375
116.42312865996352	209.79561549746856	2093.4131
117.03402083982486	210.68205617643343	2017.8803
117.63930015381712	211.5781502954692	1947.5047
118.23875609296496	212.48416571396876	1883.5546
118.83217294227461	213.40036862655413	1827.0607
119.41932969844842	214.32702295544232	1778.7847
120.00000000000001	215.26438968275463	1739.198
120.573952071433	216.2127261199089	1708.4733
121.14094868327061	217.17228511139535	1686.4868
121.70074712984672	218.14331417046245	1672.8337
122.25309922689084	219.12605454453248	1666.8554
122.79775133105717	220.12074020854297	1667.6765
123.33444438365854	221.1275967848719	1674.2523
123.86291398096766	222.1468403890659	1685.4232
124.38289047353629	223.17867640125502	1699.9744
124.89409909705513	224.2232981639185	1716.6991
125.39626013732791	225.28088560756103	1734.4613
125.88908913195978	226.35160380688492	1752.2566
126.37229711135494	227.43560147119416	1769.2682
126.84559088158062	228.53300937404572	1784.9149
127.30867335157278	229.64393872856982	1798.8903
127.76124390703504	230.7684795164077	1811.1894
128.20299883320317	231.90669877984988	1822.1233
128.6336317884152	233.05863888848748	1832.3191
129.05283433013093	234.2243157934907	1842.7062
129.460296494684	235.40371728447298	1854.4884
129.85570743161875	236.59680126575802	1869.102
130.23875609296496	237.80349407069136	1888.1628
130.60913197722795	239.0236888343902	1913.4026
130.96652592722884	240.25724394694157	1946.5972
131.31063098021812	241.50398161048972	1989.4899
131.6411432679098	242.7636865248293	2043.7122
131.95776296325596	244.03610472697835	2110.7052
132.26019526990768	245.32094261067616	2191.6448
132.54815144940486	246.6178661517692	2287.3734
132.8213498802206	247.92650036495786	2398.3417
133.07951714187095	249.2464290163152	2524.5618
133.32238911641656	250.5771946143248	2665.5752
133.5497120988417	251.91829869987816	2820.4358
133.76124390703504	253.26920245272458	2987.7102
133.9567549814302	254.62932762827677	3165.4948
134.13602946382477	255.99805783448306	3351.4497
134.2988662445046	257.374740153737	3542.8488
134.44507996657927	258.75868710958434	3736.6446
134.57450197640154	260.14917897242117	3929.545
134.68698120911597	261.5454663925662	4118.1007
134.78238499876502	262.94677334320136	4298.7994
134.8605998029806	264.3523003498448	4468.1642
134.92153183310086	265.7612279774355	4622.8524
134.96510758156856	267.17272054092643	4759.7516
134.99127423966527	268.5859300006715	4876.0701
135.0	270.0	4969.4177
134.99127423966527	271.4140699993285	5037.875
134.96510758156856	272.82727945907357	5080.0483
134.92153183310086	274.2387720225645	5095.1087
134.8605998029806	275.6476996501551	5082.8131
134.78238499876502	277.0532266567986	5043.5087
134.68698120911597	278.45453360743375	4978.1181
134.57450197640154	279.85082102757883	4888.1082
134.44507996657927	281.2413128904156	4775.4422
134.2988662445046	282.625259846263	4642.5181
134.13602946382477	284.0019421655169	4492.0946
133.9567549814302	285.37067237172323	4327.2083
133.76124390703504	286.7307975472754	4151.0837
133.5497120988417	288.08170130012184	3967.0409
133.32238911641656	289.42280538567513	3778.4029
133.07951714187095	290.75357098368477	3588.4057
132.82134988022057	292.0734996350422	3400.1147
132.54815144940488	293.38213384823075	3216.3499
132.26019526990768	294.6790573893238	3039.6221
131.95776296325596	295.9638952730216	2872.0814
131.6411432679098	297.23631347517073	2715.4803
131.31063098021812	298.49601838951025	2571.1518
130.96652592722884	299.7427560530584	2440.002
130.60913197722795	300.9763111656098	2322.5175
130.23875609296496	302.1965059293086	2218.7871
129.85570743161873	303.403198734242	2128.5355
129.46029649468403	304.59628271552697	2051.1672
129.05283433013096	305.7756842065093	1985.8195
128.6336317884152	306.9413611115125	1931.4214
128.20299883320317	308.0933012201501	1886.7556
127.76124390703505	309.23152048359225	1850.5221
127.3086733515728	310.3560612714301	1821.3996
126.84559088158062	311.4669906259543	1798.1039
126.37229711135495	312.5643985288058	1779.4395
125.88908913195978	313.6483961931151	1764.3438
125.39626013732794	314.71911439243894	1751.9225
124.89409909705515	315.77670183608143	1741.4747
124.38289047353632	316.821323598745	1732.5074
123.86291398096766	317.85315961093414	1724.7393
123.33444438365856	318.8724032151281	1718.0949
122.7977513310572	319.879259791457	1712.6886
122.25309922689087	320.8739454554675	1708.8009
121.70074712984675	321.8566858295375	1706.8478
121.14094868327061	322.82771488860465	1707.3445
120.57395207143298	323.7872738800911	1710.8672
120.00000000000001	324.73561031724535	1718.0118
119.41932969844845	325.6729770445577	1729.354
118.83217294227461	326.59963137344585	1745.4118
118.23875609296496	327.51583428603124	1766.6115
117.63930015381712	328.4218497045308	1793.2586
117.03402083982486	329.31794382356657	1825.5157
116.42312865996352	330.2043845025314	1863.3869
115.8068290103348	331.08144071504455	1906.7101
115.18532227675053	331.9493820524694	1955.1562
114.55880394545002	332.808478278447	2008.2361
113.92746472075895	333.6589989314141	2065.3145
113.29149064860304	334.5012129721155	2125.6288
112.65106324489344	335.3353884731886	2188.3138
112.00635962789399	336.16179234798136	2252.429
111.35755265377455	336.98069011586375	2316.989
110.70481105463546	337.79234570140346	2380.9938
110.04829957836931	338.59702126489356	2443.4592
109.38817912979906	339.39497706184335	2503.4456
108.7246069125981	340.18647132917056	2560.0832
108.05773657156229	340.9717601959578	2612.5944
107.38771833485946	341.7510976167656	2660.3106
106.71469915593623	342.5247353256179	2702.6847
106.03882285480876	343.2929228088982	2739.2988
105.36023025850909	344.0559072955135	2769.866
104.67905934049797	344.8139337627975	2794.2282
103.99544535889142	345.5672449567326	2812.349
103.30952099338151	346.3160814251784	2824.3036
102.62141648076056	347.06068156288813	2830.266
101.93125974898572	347.8012816671932	2830.4938
101.23917654974393	348.5381160033205	2825.3129
100.54529058949956	349.27141687839094	2815.1019
99.84972365902513	350.0014147232256	2800.2771
99.15259576143428	350.7283381811546	2781.2802
98.4540252387499	351.45241420309304	2758.567
97.75412889705464	352.17386814820765	2732.5991
97.05302213028318	352.89292388955346	2703.8393
96.35081904272556	353.60980392411284	2672.7482
95.64763257032062	354.32472948671335	2639.785
94.94357460082692	355.03792066734434	2605.409
94.23875609296496	355.7495965314293	2570.0836
93.53328719463082	356.4599752426436	2534.2814
92.82727736028713	357.16927418789817	2498.4883
92.12083546764086	357.8777101041321	2463.2085
91.41406993372146	358.5854992065825	2428.9666
90.70708883047607	359.2928573182127	2396.3088
90.0	90.0	1762.3746
89.29291116952395	89.29285731821274	1746.0856
88.58593006627854	88.58549920658245	1729.6422
87.87916453235917	87.87771010413212	1713.4295
87.1727226397129	87.16927418789815	1697.9295
86.4667128053692	86.45997524264364	1683.7051
85.76124390703504	85.74959653142929	1671.3787
85.05642539917308	85.03792066734437	1661.6075
84.3523674296794	84.32472948671335	1655.056
83.64918095727445	83.60980392411285	1652.3671
82.94697786971682	82.89292388955346	1654.1322
82.24587110294536	82.17386814820766	1660.8629
81.54597476125012	81.45241420309306	1672.9637
80.84740423856572	80.72833818115458	1690.7089
80.15027634097487	80.0014147232256	1714.2234
79.45470941050044	79.27141687839094	1743.4684
78.76082345025607	78.5381160033205	1778.233
78.0687402510143	77.80128166719327	1818.1327
77.37858351923944	77.06068156288816	1862.6138
76.69047900661849	76.31608142517841	1910.9647
76.00455464110858	75.56724495673262	1962.3333
75.32094065950206	74.81393376279749	2015.7497
74.63976974149092	74.05590729551355	2070.1548
73.96117714519126	73.29292280889818	2124.4313
73.28530084406378	72.52473532561788	2177.439
72.61228166514054	71.7510976167656	2228.0497
71.94226342843773	70.97176019595781	2275.1842
71.27539308740191	70.18647132917059	2317.8461
70.61182087020094	69.39497706184336	2355.1543
69.95170042163069	68.59702126489356	2386.3708
69.29518894536457	67.79234570140352	2410.9245
68.64244734622547	66.98069011586378	2428.428
67.99364037210603	66.16179234798135	2438.6887
67.34893675510656	65.33538847318859	2441.7131
66.70850935139694	64.50121297211548	2437.7035
66.07253527924108	63.65899893141411	2427.0486
65.44119605454999	62.808478278447	2410.3065
64.81467772324949	61.94938205246937	2388.1834
64.19317098966519	61.081440715044565	2361.5061
63.57687134003648	60.20438450253143	2331.1913
62.965979160175145	59.31794382356658	2298.2125
62.36069984618289	58.4218497045308	2263.5655
61.761243907035045	57.515834286031215	2228.2336
61.16782705772538	56.59963137344585	2193.155
60.58067030155157	55.67297704455769	2159.1926
59.99999999999999	54.735610317245346	2127.1078
59.42604792856702	53.787273880091085	2097.5389
58.8590513167294	52.827714888604646	2070.9861
58.29925287015328	51.85668582953758	2047.8011
57.74690077310915	50.87394545546753	2028.1851
57.20224866894282	49.87925979145702	2012.1917
56.66555561634145	48.87240321512806	1999.7364
56.13708601903233	47.85315961093413	1990.6125
55.61710952646371	46.821323598745	1984.5107
55.10590090294487	45.776701836081465	1981.0432
54.60373986267208	44.71911439243896	1979.7706
54.11091086804023	43.6483961931151	1980.2299
53.62770288864506	42.564398528805846	1981.9636
53.154409118419395	41.46699062595427	1984.5464
52.691326648427214	40.356061271430136	1987.6105
52.23875609296496	39.23152048359226	1990.8676
51.79700116679687	38.09330122015014	1994.1258
51.36636821158484	36.941361111512535	1997.3017
50.94716566986906	35.77568420650932	2000.4268
50.539703505316	34.59628271552699	2003.6477
50.14429256838126	33.40319873424199	2007.2202
49.76124390703504	32.19650592930866	2011.4979
49.390868022772075	30.976311165609783	2016.9151
49.03347407277117	29.742756053058372	2023.9652
48.68936901978189	28.496018389510258	2033.1757
48.35885673209022	27.236313475170732	2045.0805
48.04223703674405	25.963895273021652	2060.1903
47.73980473009234	24.679057389323834	2078.964
47.45184855059514	23.382133848230776	2101.7802
47.178650119779434	22.07349963504216	2128.9121
46.920482858129056	20.753570983684796	2160.5054
46.677610883583455	19.422805385675183	2196.561
46.450287901158305	18.08170130012181	2236.923
46.23875609296496	16.730797547275397	2281.2734
46.043245018569806	15.370672371723243	2329.132
45.86397053617525	14.001942165516926	2379.8637
45.701133755495384	12.625259846263035	2432.692
45.554920033420714	11.241312890415616	2486.7176
45.42549802359849	9.850821027578828	2540.9434
45.31301879088406	8.454533607433808	2594.3026
45.21761500123496	7.053226656798624	2645.6909
45.1394001970194	5.647699650155149	2694.0001
45.07846816689916	4.238772022564465	2738.1531
45.03489241843145	2.8272794590735852	2777.1379
45.00872576033472	1.414069999328503	2810.04
45.0	4.961562726608714e-15	2836.0715
45.00872576033472	358.5859300006715	2854.5967
45.03489241843145	357.17272054092643	2865.1521
45.07846816689916	355.76122797743557	2867.4611
45.1394001970194	354.3523003498448	2861.442
45.21761500123496	352.94677334320136	2847.2102
45.31301879088406	351.5454663925662	2825.0733
45.42549802359848	350.14917897242117	2795.5205
45.554920033420714	348.7586871095844	2759.206
45.701133755495384	347.374740153737	2716.9279
45.86397053617525	345.99805783448306	2669.602
46.043245018569806	344.62932762827677	2618.2338
46.238756092964955	343.26920245272464	2563.8874
46.450287901158305	341.91829869987816	2507.6543
46.677610883583455	340.5771946143248	2450.6224
46.920482858129056	339.2464290163152	2393.8461
47.178650119779434	337.92650036495786	2338.3194
47.45184855059512	336.61786615176925	2284.9524
47.73980473009234	335.3209426106762	2234.5513
48.04223703674405	334.03610472697835	2187.8037
48.3588567320902	332.76368652482927	2145.2687
48.68936901978189	331.50398161048975	2107.3718
49.03347407277117	330.2572439469416	2074.4052
49.39086802277208	329.0236888343902	2046.5324
49.76124390703504	327.80349407069133	2023.7972
50.14429256838125	326.596801265758	2006.136
50.539703505316005	325.40371728447303	1993.3931
50.94716566986905	324.2243157934907	1985.3377
51.36636821158484	323.05863888848745	1981.6818
51.79700116679685	321.9066987798499	1982.0985
52.23875609296496	320.76847951640775	1986.2393
52.691326648427214	319.6439387285699	1993.7495
53.154409118419395	318.5330093740457	2004.2824
53.62770288864506	317.43560147119416	2017.5095
54.11091086804023	316.3516038068849	2033.1287
54.60373986267208	315.28088560756106	2050.8684
55.10590090294487	314.2232981639185	2070.4889
55.617109526463715	313.17867640125496	2091.7802
56.13708601903233	312.14684038906586	2114.5576
56.66555561634144	311.12759678487197	2138.6545
57.20224866894282	310.120740208543	2163.9138
57.74690077310915	309.1260545445325	2190.1782
58.29925287015328	308.1433141704624	2217.28
58.8590513167294	307.17228511139535	2245.0317
59.42604792856702	306.2127261199089	2273.2177
59.99999999999999	305.26438968275465	2301.5873
60.58067030155157	304.3270229554423	2329.8506
61.16782705772538	303.40036862655415	2357.6767
61.76124390703503	302.4841657139688	2384.6952
62.36069984618289	301.5781502954692	2410.5005
62.96597916017513	300.68205617643343	2434.6594
63.57687134003648	299.7956154974686	2456.721
64.19317098966519	298.91855928495545	2476.2296
64.81467772324949	298.0506179475306	2492.7388
65.44119605454999	297.191521721553	2505.8276
66.0725352792411	296.3410010685859	2515.1157
66.70850935139694	295.49878702788453	2520.2801
67.34893675510656	294.6646115268114	2521.069
67.99364037210603	293.83820765201864	2517.3151
68.64244734622547	293.0193098841362	2508.9451
69.29518894536457	292.2076542985965	2495.9877
69.95170042163069	291.40297873510644	2478.576
70.61182087020094	290.60502293815665	2456.9475
71.2753930874019	289.81352867082944	2431.4396
71.94226342843773	289.0282398040422	2402.4805
72.61228166514054	288.2489023832344	2370.5773
73.28530084406377	287.4752646743821	2336.3001
73.96117714519126	286.7070771911018	2300.2635
74.63976974149092	285.9440927044865	2263.1064
75.32094065950206	285.1860662372025	2225.4699
76.00455464110858	284.4327550432674	2187.9759
76.6904790066185	283.6839185748216	2151.2055
77.37858351923944	282.93931843711187	2115.6791
78.0687402510143	282.1987183328067	2081.8396
78.76082345025605	281.4618839966795	2050.0382
79.45470941050044	280.72858312160906	2020.5244
80.15027634097487	279.9985852767744	1993.4401
80.84740423856572	279.2716618188454	1968.819
81.54597476125012	278.54758579690696	1946.59
82.24587110294536	277.82613185179235	1926.5863
82.94697786971682	277.10707611044654	1908.5577
83.64918095727445	276.39019607588716	1892.1881
84.3523674296794	275.67527051328665	1877.1146
85.05642539917308	274.96207933265566	1862.9506
85.76124390703502	274.2504034685707	1849.3086
86.4667128053692	273.5400247573564	1835.8245
87.17272263971289	272.83072581210183	1822.1808
87.87916453235917	272.1222898958679	1808.1272
88.58593006627854	271.4145007934176	1793.4993
89.29291116952395	270.7071426817872	1778.233
90.0	270.0	1762.3746
90.70708883047607	269.2928573182127	1746.0856
91.41406993372146	268.5854992065824	1729.6422
92.12083546764083	267.8777101041321	1713.4295
92.82727736028711	267.16927418789817	1697.9295
93.5332871946308	266.4599752426436	1683.7051
94.23875609296496	265.7495965314293	1671.3787
94.94357460082692	265.03792066734434	1661.6075
95.64763257032061	264.32472948671335	1655.056
96.35081904272555	263.60980392411284	1652.3671
97.05302213028318	262.89292388955346	1654.1322
97.75412889705464	262.17386814820765	1660.8629
98.45402523874989	261.45241420309304	1672.9637
99.15259576143428	260.7283381811546	1690.7089
99.84972365902512	260.0014147232256	1714.2234
100.54529058949956	259.27141687839094	1743.4684
101.23917654974393	258.5381160033205	1778.233
101.93125974898571	257.8012816671933	1818.1327
102.62141648076054	257.06068156288813	1862.6138
103.30952099338153	256.31608142517837	1910.9647
103.99544535889142	255.56724495673262	1962.3333
104.67905934049796	254.8139337627975	2015.7497
105.36023025850908	254.05590729551355	2070.1548
106.03882285480874	253.2929228088982	2124.4313
106.71469915593623	252.52473532561788	2177.439
107.38771833485946	251.7510976167656	2228.0497
108.05773657156229	250.9717601959578	2275.1842
108.7246069125981	250.18647132917056	2317.8461
109.38817912979906	249.39497706184335	2355.1543
110.04829957836931	248.59702126489356	2386.3708
110.70481105463544	247.79234570140352	2410.9245
111.35755265377453	246.98069011586378	2428.428
112.00635962789397	246.16179234798136	2438.6887
112.65106324489344	245.33538847318857	2441.7131
113.29149064860306	244.50121297211547	2437.7035
113.92746472075892	243.6589989314141	2427.0486
114.55880394545001	242.808478278447	2410.3065
115.18532227675053	241.9493820524694	2388.1834
115.8068290103348	241.08144071504458	2361.5061
116.42312865996352	240.2043845025314	2331.1913
117.03402083982486	239.31794382356657	2298.2125
117.63930015381712	238.4218497045308	2263.5655
118.23875609296496	237.5158342860312	2228.2336
118.83217294227461	236.59963137344585	2193.155
119.41932969844842	235.67297704455768	2159.1926
120.00000000000001	234.73561031724535	2127.1078
120.573952071433	233.78727388009108	2097.5389
121.14094868327061	232.82771488860465	2070.9861
121.70074712984672	231.85668582953755	2047.8011
122.25309922689084	230.87394545546752	2028.1851
122.79775133105717	229.879259791457	2012.1917
123.33444438365854	228.8724032151281	1999.7364
123.86291398096766	227.8531596109341	1990.6125
124.38289047353629	226.82132359874498	1984.5107
124.89409909705513	225.7767018360815	1981.0432
125.39626013732791	224.71911439243897	1979.7706
125.88908913195978	223.64839619311508	1980.2299
126.37229711135494	222.56439852880584	1981.9636
126.84559088158062	221.46699062595428	1984.5464
127.30867335157278	220.35606127143015	1987.6105
127.76124390703504	219.23152048359228	1990.8676
128.20299883320317	218.0933012201501	1994.1258
128.6336317884152	216.94136111151252	1997.3017
129.05283433013093	215.7756842065093	2000.4268
129.460296494684	214.59628271552702	2003.6477
129.85570743161875	213.40319873424195	2007.2202
130.23875609296496	212.19650592930864	2011.4979
130.60913197722795	210.9763111656098	2016.9151
130.96652592722884	209.74275605305837	2023.9652
131.31063098021812	208.49601838951028	2033.1757
131.6411432679098	207.2363134751707	2045.0805
131.95776296325596	205.96389527302162	2060.1903
132.26019526990768	204.67905738932384	2078.964
132.54815144940486	203.38213384823078	2101.7802
132.8213498802206	202.07349963504214	2128.9121
133.07951714187095	200.75357098368477	2160.5054
133.32238911641656	199.4228053856752	2196.561
133.5497120988417	198.08170130012184	2236.923
133.76124390703504	196.73079754727542	2281.2734
133.9567549814302	195.3706723717232	2329.132
134.13602946382477	194.0019421655169	2379.8637
134.2988662445046	192.62525984626305	2432.692
134.44507996657927	191.24131289041563	2486.7176
134.57450197640154	189.8508210275788	2540.9434
134.68698120911597	188.4545336074338	2594.3026
134.78238499876502	187.0532266567986	2645.6909
134.8605998029806	185.64769965015518	2694.0001
134.92153183310086	184.2387720225645	2738.1531
134.96510758156856	182.82727945907357	2777.1379
134.99127423966527	181.4140699993285	2810.04
135.0	180.0	2836.0715
134.99127423966527	178.58593000067157	2854.5967
134.96510758156856	177.1727205409264	2865.1521
134.92153183310086	175.76122797743554	2867.4611
134.8605998029806	174.35230034984485	2861.442
134.78238499876502	172.94677334320141	2847.2102
134.68698120911597	171.54546639256625	2825.0733
134.57450197640154	170.14917897242117	2795.5205
134.44507996657927	168.7586871095844	2759.206
134.2988662445046	167.37474015373698	2716.9279
134.13602946382477	165.9980578344831	2669.602
133.9567549814302	164.62932762827674	2618.2338
133.76124390703504	163.2692024527246	2563.8874
133.5497120988417	161.9182986998782	2507.6543
133.32238911641656	160.57719461432484	2450.6224
133.07951714187095	159.24642901631526	2393.8461
132.82134988022057	157.92650036495783	2338.3194
132.54815144940488	156.61786615176925	2284.9524
132.26019526990768	155.32094261067618	2234.5513
131.95776296325596	154.03610472697838	2187.8037
131.6411432679098	152.76368652482927	2145.2687
131.31063098021812	151.50398161048975	2107.3718
130.96652592722884	150.25724394694163	2074.4052
130.60913197722795	149.02368883439024	2046.5324
130.23875609296496	147.80349407069139	2023.7972
129.85570743161873	146.596801265758	2006.136
129.46029649468403	145.403717284473	1993.3931
129.05283433013096	144.22431579349072	1985.3377
128.6336317884152	143.0586388884875	1981.6818
128.20299883320317	141.90669877984988	1982.0985
127.76124390703505	140.76847951640775	1986.2393
127.3086733515728	139.64393872856988	1993.7495
126.84559088158062	138.53300937404575	2004.2824
126.37229711135495	137.4356014711942	2017.5095
125.88908913195978	136.35160380688492	2033.1287
125.39626013732794	135.28088560756106	2050.8684
124.89409909705515	134.22329816391854	2070.4889
124.38289047353632	133.17867640125502	2091.7802
123.86291398096766	132.14684038906586	2114.5576
123.33444438365856	131.12759678487194	2138.6545
122.7977513310572	130.120740208543	2163.9138
122.25309922689087	129.12605454453248	2190.1782
121.70074712984675	128.14331417046245	2217.28
121.14094868327061	127.17228511139534	2245.0317
120.57395207143298	126.21272611990892	2273.2177
120.00000000000001	125.26438968275468	2301.5873
119.41932969844845	124.32702295544235	2329.8506
118.83217294227461	123.40036862655414	2357.6767
118.23875609296496	122.48416571396879	2384.6952
117.63930015381712	121.57815029546921	2410.5005
117.03402083982486	120.68205617643345	2434.6594
116.42312865996352	119.79561549746859	2456.721
115.8068290103348	118.91855928495542	2476.2296
115.18532227675053	118.05061794753063	2492.7388
114.55880394545002	117.19152172155302	2505.8276
113.92746472075895	116.34100106858591	2515.1157
113.29149064860304	115.49878702788452	2520.2801
112.65106324489344	114.66461152681141	2521.069
112.00635962789399	113.83820765201867	2517.3151
111.35755265377455	113.01930988413625	2508.9451
110.70481105463546	112.20765429859652	2495.9877
110.04829957836931	111.40297873510644	2478.576
109.38817912979906	110.60502293815665	2456.9475
108.7246069125981	109.81352867082943	2431.4396
108.05773657156229	109.02823980404222	2402.4805
107.38771833485946	108.2489023832344	2370.5773
106.71469915593623	107.47526467438213	2336.3001
106.03882285480876	106.70707719110183	2300.2635
105.36023025850909	105.94409270448648	2263.1064
104.67905934049797	105.18606623720254	2225.4699
103.99544535889142	104.43275504326738	2187.9759
103.30952099338151	103.68391857482159	2151.2055
102.62141648076056	102.93931843711185	2115.6791
101.93125974898572	102.19871833280676	2081.8396
101.23917654974393	101.4618839966795	2050.0382
100.54529058949956	100.72858312160906	2020.5244
99.84972365902513	99.99858527677442	1993.4401
99.15259576143428	99.27166181884544	1968.819
98.4540252387499	98.54758579690696	1946.59
97.75412889705464	97.82613185179234	1926.5863
97.05302213028318	97.10707611044654	1908.5577
96.35081904272556	96.39019607588716	1892.1881
95.64763257032062	95.67527051328666	1877.1146
94.94357460082692	94.96207933265563	1862.9506
94.23875609296496	94.25040346857071	1849.3086
93.53328719463082	93.54002475735638	1835.8245
92.82727736028713	92.83072581210186	1822.1808
92.12083546764086	92.12228989586791	1808.1272
91.41406993372146	91.41450079341756	1793.4993
90.70708883047607	90.70714268178726	1778.233
90.0	0.0	1724.1844
90.0	1.0	1704.2033
90.0	2.0	1685.2239
90.0	3.0000000000000004	1667.6533
90.0	4.0	1651.9236
90.0	5.0	1638.4776
90.0	6.000000000000001	1627.7528
90.0	7.0	1620.1652
90.0	8.0	1616.0912
90.0	9.0	1615.8515
90.0	10.0	1619.6955
90.0	11.0	1627.7874
90.0	12.0	1640.1956
90.0	13.0	1656.8849
90.0	14.0	1677.7127
90.0	14.999999999999998	1702.4288
90.0	16.0	1730.6801
90.0	17.000000000000004	1762.0189
90.0	18.0	1795.9153
90.0	19.0	1831.7737
90.0	20.0	1868.9515
90.0	21.0	1906.781
90.0	22.0	1944.5921
90.0	23.0	1981.7361
90.0	24.000000000000004	2017.609
90.0	25.0	2051.6735
90.0	26.0	2083.4784
90.0	26.999999999999996	2112.6755
90.0	28.0	2139.0322
90.0	29.000000000000004	2162.4396
90.0	29.999999999999996	2182.9159
90.0	31.0	2200.6044
90.0	32.0	2215.7668
90.0	33.0	2228.7711
90.0	34.00000000000001	2240.0754
90.0	35.0	2250.2075
90.0	36.0	2259.7416
90.0	37.0	2269.273
90.0	38.0	2279.3916
90.0	39.0	2290.6559
90.0	40.0	2303.5671
90.0	41.0	2318.5472
90.0	42.0	2335.9192
90.0	43.0	2355.8921
90.0	44.0	2378.5509
90.0	45.0	2403.852
90.0	46.00000000000001	2431.625
90.0	47.0	2461.5795
90.0	48.00000000000001	2493.319
90.0	49.00000000000001	2526.3583
90.0	50.0	2560.1477
90.0	51.0	2594.0987
90.0	52.0	2627.6143
90.0	53.0	2660.1189
90.0	54.0	2691.0903
90.0	55.0	2720.0886
90.0	56.0	2746.7834
90.0	57.00000000000001	2770.9775
90.0	58.00000000000001	2792.6251
90.0	59.00000000000001	2811.8439
90.0	59.99999999999999	2828.9216
90.0	61.0	2844.314
90.0	62.0	2858.6367
90.0	63.0	2872.6491
90.0	64.0	2887.2321
90.0	65.0	2903.359
90.0	66.0	2922.0617
90.0	67.0	2944.3924
90.0	68.0	2971.383
90.0	69.0	3004.0035
90.0	70.0	3043.1196
90.0	71.0	3089.454
90.0	72.0	3143.5499
90.0	73.0	3205.7398
90.0	74.0	3276.1209
90.0	75.0	3354.5377
90.0	76.0	3440.5724
90.0	77.0	3533.5444
90.0	78.0	3632.5188
90.0	79.0	3736.3232
90.0	80.0	3843.5733
90.0	81.0	3952.7061
90.0	82.0	4062.0192
90.0	83.0	4169.7164
90.0	84.0	4273.9557
90.0	85.0	4372.9009
90.0	86.0	4464.773
90.0	87.0	4547.9
90.0	88.0	4620.7646
90.0	89.0	4682.0466
90.0	90.0	4730.6598
90.0	91.0	4765.7814
90.0	92.0	4786.8734
90.0	93.0	4793.6951
90.0	94.0	4786.3068
90.0	95.0	4765.0633
90.0	96.00000000000001	4730.6002
90.0	97.0	4683.8103
90.0	98.0	4625.8135
90.0	99.0	4557.9203
90.0	100.0	4481.5904
90.0	101.0	4398.3882
90.0	102.0	4309.9358
90.0	103.0	4217.8663
90.0	104.0	4123.779
90.0	105.00000000000001	4029.1959
90.0	106.0	3935.5244
90.0	107.0	3844.0237
90.0	108.0	3755.7786
90.0	109.0	3671.6801
90.0	110.0	3592.4126
90.0	111.0	3518.4499
90.0	112.0	3450.0573
90.0	113.0	3387.3016
90.0	114.00000000000001	3330.0664
90.0	115.0	3278.0738
90.0	116.00000000000001	3230.9092
90.0	117.0	3188.0499
90.0	118.00000000000001	3148.896
90.0	119.0	3112.8007
90.0	119.99999999999999	3079.1011
90.0	121.0	3047.1468
90.0	122.0	3016.3257
90.0	123.00000000000001	2986.0866
90.0	124.0	2955.9565
90.0	125.00000000000001	2925.5547
90.0	126.0	2894.6003
90.0	127.00000000000001	2862.9159
90.0	128.0	2830.4255
90.0	129.0	2797.1492
90.0	130.0	2763.1924
90.0	131.0	2728.7332
90.0	132.0	2694.0068
90.0	133.0	2659.2883
90.0	134.0	2624.8748
90.0	135.0	2591.0683
90.0	136.0	2558.1587
90.0	137.0	2526.4095
90.0	138.0	2496.0446
90.0	139.0	2467.2393
90.0	140.0	2440.1132
90.0	141.0	2414.7271
90.0	142.0	2391.0825
90.0	143.0	2369.1244
90.0	144.0	2348.7469
90.0	145.0	2329.8007
90.0	146.0	2312.1028
90.0	147.0	2295.4468
90.0	148.0	2279.6138
90.0	149.0	2264.3837
90.0	150.0	2249.545
90.0	151.0	2234.9041
90.0	152.0	2220.2927
90.0	153.0	2205.5726
90.0	154.0	2190.6396
90.0	155.0	2175.4241
90.0	156.0	2159.8899
90.0	157.0	2144.0309
90.0	158.0	2127.8663
90.0	159.0	2111.4346
90.0	160.0	2094.7858
90.0	161.0	2077.9748
90.0	162.0	2061.0534
90.0	163.0	2044.0642
90.0	164.0	2027.0348
90.0	165.0	2009.9741
90.0	166.0	1992.87
90.0	167.0	1975.6895
90.0	168.0	1958.3805
90.0	169.0	1940.876
90.0	170.0	1923.1
90.0	171.0	1904.9753
90.0	172.0	1886.4317
90.0	173.0	1867.4161
90.0	174.0	1847.9014
90.0	175.0	1827.8963
90.0	176.0	1807.453
90.0	177.0	1786.6741
90.0	178.0	1765.7173
90.0	179.0	1744.797
90.0	180.0	1724.1844
90.0	181.0	1704.2033
90.0	181.99999999999997	1685.2239
90.0	182.99999999999997	1667.6533
90.0	183.99999999999997	1651.9236
90.0	184.99999999999997	1638.4776
90.0	185.99999999999997	1627.7528
90.0	186.99999999999997	1620.1652
90.0	188.0	1616.0912
90.0	188.99999999999997	1615.8515
90.0	190.0	1619.6955
90.0	190.99999999999997	1627.7874
90.0	192.0	1640.1956
90.0	192.99999999999997	1656.8849
90.0	193.99999999999997	1677.7127
90.0	194.99999999999997	1702.4288
90.0	195.99999999999997	1730.6801
90.0	197.0	1762.0189
90.0	197.99999999999997	1795.9153
90.0	199.0	1831.7737
90.0	199.99999999999997	1868.9515
90.0	201.0	1906.781
90.0	201.99999999999997	1944.5921
90.0	203.0	1981.7361
90.0	203.99999999999997	2017.609
90.0	204.99999999999997	2051.6735
90.0	206.0	2083.4784
90.0	206.99999999999997	2112.6755
90.0	208.0	2139.0322
90.0	208.99999999999997	2162.4396
90.0	210.0	2182.9159
90.0	210.99999999999997	2200.6044
90.0	212.0	2215.7668
90.0	212.99999999999997	2228.7711
90.0	214.0	2240.0754
90.0	215.0	2250.2075
90.0	216.0	2259.7416
90.0	217.0	2269.273
90.0	217.99999999999997	2279.3916
90.0	219.00000000000003	2290.6559
90.0	219.99999999999997	2303.5671
90.0	220.99999999999997	2318.5472
90.0	221.99999999999997	2335.9192
90.0	223.0	2355.8921
90.0	224.0	2378.5509
90.0	224.99999999999997	2403.852
90.0	226.0	2431.625
90.0	227.0	2461.5795
90.0	228.0	2493.319
90.0	229.0	2526.3583
90.0	230.0	2560.1477
90.0	230.99999999999997	2594.0987
90.0	232.00000000000003	2627.6143
90.0	233.0	2660.1189
90.0	233.99999999999997	2691.0903
90.0	234.99999999999994	2720.0886
90.0	236.0	2746.7834
90.0	237.0	2770.9775
90.0	238.0	2792.6251
90.0	239.0	2811.8439
90.0	239.99999999999994	2828.9216
90.0	241.0	2844.314
90.0	242.0	2858.6367
90.0	242.99999999999997	2872.6491
90.0	243.99999999999994	2887.2321
90.0	245.0	2903.359
90.0	246.0	2922.0617
90.0	247.0	2944.3924
90.0	248.0	2971.383
90.0	248.99999999999997	3004.0035
90.0	250.0	3043.1196
90.0	251.0	3089.454
90.0	252.0	3143.5499
90.0	252.99999999999997	3205.7398
90.0	254.0	3276.1209
90.0	255.0	3354.5377
90.0	256.0	3440.5724
90.0	257.0	3533.5444
90.0	258.0	3632.5188
90.0	259.0	3736.3232
90.0	260.0	3843.5733
90.0	261.0	3952.7061
90.0	262.0	4062.0192
90.0	263.0	4169.7164
90.0	264.0	4273.9557
90.0	265.0	4372.9009
90.0	266.0	4464.773
90.0	267.0	4547.9
90.0	268.0	4620.7646
90.0	269.0	4682.0466
90.0	270.0	4730.6598
90.0	271.0	4765.7814
90.0	272.0	4786.8734
90.0	273.0	4793.6951
90.0	274.0	4786.3068
90.0	275.0	4765.0633
90.0	276.0	4730.6002
90.0	277.0	4683.8103
90.0	278.0	4625.8135
90.0	279.0	4557.9203
90.0	280.0	4481.5904
90.0	281.0	4398.3882
90.0	282.0	4309.9358
90.0	283.0	4217.8663
90.0	284.0	4123.779
90.0	285.0	4029.1959
90.0	286.0	3935.5244
90.0	287.0	3844.0237
90.0	288.0	3755.7786
90.0	289.0	3671.6801
90.0	290.0	3592.4126
90.0	291.0	3518.4499
90.0	292.0	3450.0573
90.0	293.0	3387.3016
90.0	294.0	3330.0664
90.0	295.0	3278.0738
90.0	296.0	3230.9092
90.0	297.0	3188.0499
90.0	298.0	3148.896
90.0	299.0	3112.8007
90.0	300.0	3079.1011
90.0	301.0	3047.1468
90.0	302.0	3016.3257
90.0	303.0	2986.0866
90.0	304.0	2955.9565
90.0	305.0	2925.5547
90.0	306.0	2894.6003
90.0	307.0	2862.9159
90.0	308.0	2830.4255
90.0	309.0	2797.1492
90.0	310.0	2763.1924
90.0	311.0	2728.7332
90.0	311.99999999999994	2694.0068
90.0	313.0	2659.2883
90.0	314.0	2624.8748
90.0	315.0	2591.0683
90.0	316.0	2558.1587
90.0	317.0	2526.4095
90.0	318.0	2496.0446
90.0	319.0	2467.2393
90.0	320.0	2440.1132
90.0	321.0	2414.7271
90.0	322.0	2391.0825
90.0	323.0	2369.1244
90.0	324.0	2348.7469
90.0	325.0	2329.8007
90.0	326.0	2312.1028
90.0	327.0	2295.4468
90.0	328.0	2279.6138
90.0	329.0	2264.3837
90.0	330.0	2249.545
90.0	331.0	2234.9041
90.0	332.0	2220.2927
90.0	333.0	2205.5726
90.0	334.0	2190.6396
90.0	335.0	2175.4241
90.0	336.0	2159.8899
90.0	337.0	2144.0309
90.0	338.0	2127.8663
90.0	338.99999999999994	2111.4346
90.0	340.0	2094.7858
90.0	341.0	2077.9748
90.0	342.0	2061.0534
90.0	343.0	2044.0642
90.0	344.0	2027.0348
90.0	345.0	2009.9741
90.0	346.0	1992.87
90.0	347.0	1975.6895
90.0	347.99999999999994	1958.3805
90.0	349.0	1940.876
90.0	350.0	1923.1
90.0	351.0	1904.9753
90.0	352.0	1886.4317
90.0	353.0	1867.4161
90.0	354.0	1847.9014
90.0	355.0	1827.8963
90.0	356.0	1807.453
90.0	356.99999999999994	1786.6741
90.0	358.0	1765.7173
90.0	359.0	1744.797
