Polar Angle 	 Azimuth Angle 	 Intensity 
90.0	0.0	766.939
89.0	0.0	777.2413
88.0	0.0	801.5104
87.00000000000001	0.0	838.9955
86.0	0.0	888.5291
85.0	0.0	948.5731
84.0	0.0	1017.2805
83.0	0.0	1092.5674
82.0	0.0	1172.1956
81.0	0.0	1253.8593
80.0	0.0	1335.2739
79.0	0.0	1414.2629
78.00000000000001	0.0	1488.8385
77.0	0.0	1557.2736
76.0	0.0	1618.1612
75.0	0.0	1670.4599
74.0	0.0	1713.5226
73.0	0.0	1747.108
72.0	0.0	1771.3746
71.0	0.0	1786.8569
70.0	0.0	1794.4269
69.00000000000001	0.0	1795.2402
68.0	0.0	1790.6714
67.0	0.0	1782.2406
66.0	0.0	1771.5354
65.0	0.0	1760.1305
64.0	0.0	1749.5101
63.0	0.0	1740.9954
62.0	0.0	1735.6814
61.0	0.0	1734.3853
60.00000000000001	0.0	1737.6084
59.00000000000001	0.0	1745.5145
58.00000000000001	0.0	1757.9241
57.00000000000001	0.0	1774.326
55.99999999999999	0.0	1793.9051
55.00000000000001	0.0	1815.5846
54.0	0.0	1838.0817
53.00000000000001	0.0	1859.9738
52.0	0.0	1879.7717
51.00000000000001	0.0	1895.9971
50.00000000000001	0.0	1907.2602
49.00000000000001	0.0	1912.3348
48.0	0.0	1910.2262
47.0	0.0	1900.2295
46.00000000000001	0.0	1881.9754
45.0	0.0	1855.4613
44.0	0.0	1821.0662
43.0	0.0	1779.5482
42.0	0.0	1732.0249
41.0	0.0	1679.938
40.00000000000001	0.0	1625.0015
39.0	0.0	1569.1382
37.99999999999999	0.0	1514.4051
37.0	0.0	1462.9123
36.0	0.0	1416.7381
35.0	0.0	1377.8433
34.0	0.0	1347.991
33.0	0.0	1328.6717
31.99999999999999	0.0	1321.0404
31.0	0.0	1325.866
30.000000000000004	0.0	1343.4968
29.00000000000001	0.0	1373.8429
28.000000000000007	0.0	1416.3763
27.00000000000001	0.0	1470.1491
25.999999999999996	0.0	1533.8294
25.000000000000004	0.0	1605.752
24.000000000000004	0.0	1683.9835
22.999999999999993	0.0	1766.3982
21.999999999999996	0.0	1850.7611
21.0	0.0	1934.8156
20.00000000000001	0.0	2016.3714
19.000000000000014	0.0	2093.3888
18.00000000000001	0.0	2164.0561
17.000000000000007	0.0	2226.8572
15.999999999999995	0.0	2280.6251
14.999999999999996	0.0	2324.581
14.0	0.0	2358.3558
12.999999999999996	0.0	2381.9936
12.000000000000018	0.0	2395.938
10.999999999999993	0.0	2401.0001
10.000000000000012	0.0	2398.3116
8.999999999999984	0.0	2389.2636
7.999999999999981	0.0	2375.4351
7.000000000000025	0.0	2358.5132
6.000000000000026	0.0	2340.2096
4.999999999999992	0.0	2322.1766
4.000000000000042	0.0	2305.9263
3.0000000000000444	0.0	2292.7571
1.9999999999999472	0.0	2283.6907
0.9999999999999002	0.0	2279.421
0.0	0.0	2280.2802
0.9999999999999002	180.0	2286.2207
1.9999999999999472	180.0	2296.8151
3.0000000000000444	180.0	2311.2746
4.000000000000042	180.0	2328.4835
4.999999999999992	180.0	2347.0511
6.000000000000026	180.0	2365.3751
6.9999999999999725	180.0	2381.7175
7.999999999999981	180.0	2394.2864
8.999999999999984	180.0	2401.3227
10.000000000000012	180.0	2401.1863
10.999999999999993	180.0	2392.4381
11.999999999999988	180.0	2373.9153
12.999999999999996	180.0	2344.7949
14.0	180.0	2304.6443
14.999999999999996	180.0	2253.4546
15.999999999999995	180.0	2191.6575
16.99999999999999	180.0	2120.1224
17.999999999999986	180.0	2040.1352
18.999999999999996	180.0	1953.3596
19.999999999999993	180.0	1861.7807
21.0	180.0	1767.6356
21.999999999999996	180.0	1673.3322
23.00000000000001	180.0	1581.3592
24.000000000000004	180.0	1494.1929
24.99999999999999	180.0	1414.2028
26.000000000000007	180.0	1343.5607
26.999999999999996	180.0	1284.1575
28.000000000000007	180.0	1237.53
28.999999999999996	180.0	1204.8026
29.999999999999993	180.0	1186.6439
31.0	180.0	1183.2424
31.99999999999999	180.0	1194.301
33.0	180.0	1219.0502
34.0	180.0	1256.2806
35.000000000000014	180.0	1304.3923
36.0	180.0	1361.4597
37.000000000000014	180.0	1425.3083
37.99999999999999	180.0	1493.6009
38.99999999999999	180.0	1563.9292
40.00000000000001	180.0	1633.9069
40.999999999999986	180.0	1701.2608
42.0	180.0	1763.9154
43.0	180.0	1820.068
44.00000000000001	180.0	1868.2518
45.0	180.0	1907.3824
46.000000000000014	180.0	1936.7888
47.0	180.0	1956.2252
47.999999999999986	180.0	1965.8647
49.00000000000001	180.0	1966.2753
49.99999999999999	180.0	1958.3783
51.00000000000001	180.0	1943.3934
51.99999999999999	180.0	1922.7703
53.000000000000014	180.0	1898.1122
53.99999999999999	180.0	1871.0937
55.000000000000014	180.0	1843.3764
55.99999999999999	180.0	1816.5278
56.999999999999986	180.0	1791.9442
58.00000000000001	180.0	1770.7843
58.99999999999999	180.0	1753.914
60.00000000000001	180.0	1741.8659
61.0	180.0	1734.8154
62.000000000000014	180.0	1732.5734
63.0	180.0	1734.5978
64.00000000000001	180.0	1740.0209
65.0	180.0	1747.6934
65.99999999999999	180.0	1756.2418
67.0	180.0	1764.1371
68.0	180.0	1769.7719
69.00000000000001	180.0	1771.5415
70.0	180.0	1767.9265
71.00000000000001	180.0	1757.5727
72.0	180.0	1739.3635
73.00000000000001	180.0	1712.4842
74.0	180.0	1676.4721
74.99999999999999	180.0	1631.2526
76.0	180.0	1577.158
77.0	180.0	1514.9284
78.00000000000001	180.0	1445.6954
79.0	180.0	1370.9476
80.00000000000001	180.0	1292.4805
81.0	180.0	1212.3327
82.00000000000001	180.0	1132.7097
83.0	180.0	1055.9008
83.99999999999999	180.0	984.191
85.0	180.0	919.7711
86.0	180.0	864.6521
87.00000000000001	180.0	820.5851
88.0	180.0	788.9918
89.00000000000001	180.0	770.9074
90.0	180.0	766.939
91.00000000000001	180.0	777.2413
92.0	180.0	801.5104
92.99999999999999	180.0	838.9955
94.0	180.0	888.5291
95.0	180.0	948.5731
96.00000000000001	180.0	1017.2805
97.0	180.0	1092.5674
98.00000000000001	180.0	1172.1956
99.0	180.0	1253.8593
100.00000000000001	180.0	1335.2739
101.0	180.0	1414.2629
102.00000000000001	180.0	1488.8385
103.0	180.0	1557.2736
104.0	180.0	1618.1612
105.00000000000001	180.0	1670.4599
106.0	180.0	1713.5226
107.00000000000001	180.0	1747.108
108.0	180.0	1771.3746
109.00000000000001	180.0	1786.8569
110.0	180.0	1794.4269
111.00000000000001	180.0	1795.2402
112.0	180.0	1790.6714
113.0	180.0	1782.2406
114.00000000000001	180.0	1771.5354
115.0	180.0	1760.1305
116.00000000000001	180.0	1749.5101
117.0	180.0	1740.9954
118.00000000000001	180.0	1735.6814
119.0	180.0	1734.3853
120.00000000000001	180.0	1737.6084
121.0	180.0	1745.5145
122.0	180.0	1757.9241
123.00000000000001	180.0	1774.326
124.0	180.0	1793.9051
125.00000000000001	180.0	1815.5846
126.0	180.0	1838.0817
127.00000000000001	180.0	1859.9738
128.0	180.0	1879.7717
129.00000000000003	180.0	1895.9971
130.0	180.0	1907.2602
131.0	180.0	1912.3348
132.0	180.0	1910.2262
133.0	180.0	1900.2295
134.0	180.0	1881.9754
135.0	180.0	1855.4613
136.0	180.0	1821.0662
137.0	180.0	1779.5482
138.00000000000003	180.0	1732.0249
139.0	180.0	1679.938
140.0	180.0	1625.0015
140.99999999999997	180.0	1569.1382
142.00000000000003	180.0	1514.4051
143.0	180.0	1462.9123
144.0	180.0	1416.7381
145.0	180.0	1377.8433
146.00000000000003	180.0	1347.991
147.00000000000003	180.0	1328.6717
148.0	180.0	1321.0404
149.0	180.0	1325.866
149.99999999999997	180.0	1343.4968
151.00000000000003	180.0	1373.8429
152.0	180.0	1416.3763
153.0	180.0	1470.1491
154.0	180.0	1533.8294
155.00000000000003	180.0	1605.752
156.00000000000003	180.0	1683.9835
157.0	180.0	1766.3982
158.0	180.0	1850.7611
158.99999999999997	180.0	1934.8156
160.00000000000003	180.0	2016.3714
161.0	180.0	2093.3888
162.0	180.0	2164.0561
163.0	180.0	2226.8572
164.00000000000003	180.0	2280.6251
165.00000000000003	180.0	2324.581
166.0	180.0	2358.3558
167.0	180.0	2381.9936
167.99999999999997	180.0	2395.938
169.00000000000003	180.0	2401.0001
169.99999999999997	180.0	2398.3116
170.99999999999997	180.0	2389.2636
172.0	180.0	2375.4351
173.00000000000003	180.0	2358.5132
174.00000000000003	180.0	2340.2096
175.0	180.0	2322.1766
175.99999999999997	180.0	2305.9263
176.99999999999994	180.0	2292.7571
178.00000000000006	180.0	2283.6907
179.0000000000001	180.0	2279.421
180.0	180.0	2280.2802
179.0000000000001	0.0	2286.2207
178.00000000000006	0.0	2296.8151
176.99999999999994	0.0	2311.2746
176.00000000000006	0.0	2328.4835
175.0	0.0	2347.0511
174.00000000000003	0.0	2365.3751
172.99999999999997	0.0	2381.7175
172.0	0.0	2394.2864
171.00000000000003	0.0	2401.3227
170.00000000000003	0.0	2401.1863
168.99999999999997	0.0	2392.4381
167.99999999999997	0.0	2373.9153
167.00000000000003	0.0	2344.7949
166.00000000000003	0.0	2304.6443
165.00000000000003	0.0	2253.4546
163.99999999999997	0.0	2191.6575
163.0	0.0	2120.1224
162.00000000000003	0.0	2040.1352
161.00000000000003	0.0	1953.3596
160.0	0.0	1861.7807
159.0	0.0	1767.6356
158.00000000000003	0.0	1673.3322
157.00000000000003	0.0	1581.3592
156.00000000000003	0.0	1494.1929
154.99999999999997	0.0	1414.2028
154.0	0.0	1343.5607
153.00000000000003	0.0	1284.1575
152.0	0.0	1237.53
150.99999999999997	0.0	1204.8026
150.0	0.0	1186.6439
149.0	0.0	1183.2424
148.0	0.0	1194.301
147.00000000000003	0.0	1219.0502
146.0	0.0	1256.2806
145.0	0.0	1304.3923
144.00000000000003	0.0	1361.4597
143.0	0.0	1425.3083
142.0	0.0	1493.6009
140.99999999999997	0.0	1563.9292
140.00000000000003	0.0	1633.9069
139.00000000000003	0.0	1701.2608
138.00000000000003	0.0	1763.9154
137.0	0.0	1820.068
136.0	0.0	1868.2518
135.00000000000003	0.0	1907.3824
134.00000000000003	0.0	1936.7888
132.99999999999997	0.0	1956.2252
131.99999999999997	0.0	1965.8647
131.00000000000003	0.0	1966.2753
130.00000000000003	0.0	1958.3783
129.00000000000003	0.0	1943.3934
128.0	0.0	1922.7703
126.99999999999999	0.0	1898.1122
126.00000000000003	0.0	1871.0937
125.00000000000004	0.0	1843.3764
123.99999999999997	0.0	1816.5278
122.99999999999999	0.0	1791.9442
122.0	0.0	1770.7843
121.0	0.0	1753.914
120.00000000000001	0.0	1741.8659
119.0	0.0	1734.8154
118.00000000000001	0.0	1732.5734
117.00000000000003	0.0	1734.5978
116.00000000000004	0.0	1740.0209
115.0	0.0	1747.6934
114.00000000000001	0.0	1756.2418
113.00000000000001	0.0	1764.1371
112.00000000000003	0.0	1769.7719
111.00000000000004	0.0	1771.5415
110.0	0.0	1767.9265
109.00000000000001	0.0	1757.5727
108.00000000000003	0.0	1739.3635
107.00000000000004	0.0	1712.4842
106.0	0.0	1676.4721
105.0	0.0	1631.2526
104.00000000000001	0.0	1577.158
103.00000000000001	0.0	1514.9284
102.00000000000003	0.0	1445.6954
100.99999999999999	0.0	1370.9476
100.0	0.0	1292.4805
99.00000000000001	0.0	1212.3327
98.00000000000003	0.0	1132.7097
96.99999999999999	0.0	1055.9008
96.0	0.0	984.191
95.0	0.0	919.7711
94.00000000000001	0.0	864.6521
93.00000000000003	0.0	820.5851
91.99999999999999	0.0	788.9918
91.0	0.0	770.9074
90.0	90.0	1136.7571
89.0	90.0	1137.9002
88.0	90.0	1141.7606
87.00000000000001	90.0	1148.2036
86.0	90.0	1157.0082
85.0	90.0	1167.8761
84.0	90.0	1180.4435
83.0	90.0	1194.2964
82.0	90.0	1208.9866
81.0	90.0	1224.0499
80.0	90.0	1239.0237
79.0	90.0	1253.4653
78.00000000000001	90.0	1266.9682
77.0	90.0	1279.1773
76.0	90.0	1289.801
75.0	90.0	1298.6217
74.0	90.0	1305.5016
73.0	90.0	1310.3861
72.0	90.0	1313.3036
71.0	90.0	1314.3617
70.0	90.0	1313.7403
69.00000000000001	90.0	1311.6823
68.0	90.0	1308.4812
67.0	90.0	1304.4682
66.0	90.0	1299.9969
65.0	90.0	1295.429
64.0	90.0	1291.1191
63.0	90.0	1287.4011
62.0	90.0	1284.5762
61.0	90.0	1282.9024
60.00000000000001	90.0	1282.5873
59.00000000000001	90.0	1283.783
58.00000000000001	90.0	1286.5841
57.00000000000001	90.0	1291.0286
55.99999999999999	90.0	1297.102
55.00000000000001	90.0	1304.7432
54.0	90.0	1313.8529
53.00000000000001	90.0	1324.304
52.0	90.0	1335.9525
51.00000000000001	90.0	1348.6493
50.00000000000001	90.0	1362.2516
49.00000000000001	90.0	1376.6339
48.0	90.0	1391.6975
47.0	90.0	1407.3778
46.00000000000001	90.0	1423.6498
45.0	90.0	1440.5314
44.0	90.0	1458.0827
43.0	90.0	1476.4039
42.0	90.0	1495.6296
41.0	90.0	1515.921
40.00000000000001	90.0	1537.4564
39.0	90.0	1560.4188
37.99999999999999	90.0	1584.9841
37.0	90.0	1611.3079
36.0	90.0	1639.5123
35.0	90.0	1669.6745
34.0	90.0	1701.8158
33.0	90.0	1735.8938
31.99999999999999	90.0	1771.7962
31.0	90.0	1809.3383
30.000000000000004	90.0	1848.2631
29.00000000000001	90.0	1888.245
28.000000000000007	90.0	1928.897
27.00000000000001	90.0	1969.7803
25.999999999999996	90.0	2010.4172
25.000000000000004	90.0	2050.3062
24.000000000000004	90.0	2088.9383
22.999999999999993	90.0	2125.815
21.999999999999996	90.0	2160.4658
21.0	90.0	2192.4659
20.00000000000001	90.0	2221.452
19.000000000000014	90.0	2247.1366
18.00000000000001	90.0	2269.3196
17.000000000000007	90.0	2287.8961
15.999999999999995	90.0	2302.8617
14.999999999999996	90.0	2314.3127
14.0	90.0	2322.4433
12.999999999999996	90.0	2327.5383
12.000000000000018	90.0	2329.9621
10.999999999999993	90.0	2330.1446
10.000000000000012	90.0	2328.5638
8.999999999999984	90.0	2325.7271
7.999999999999981	90.0	2322.1502
7.000000000000025	90.0	2318.3361
6.000000000000026	90.0	2314.7542
4.999999999999992	90.0	2311.8204
4.000000000000042	90.0	2309.8796
3.0000000000000444	90.0	2309.1902
1.9999999999999472	90.0	2309.9131
0.9999999999999002	90.0	2312.1032
0.0	90.0	2315.7067
0.9999999999999002	270.0	2320.5613
1.9999999999999472	270.0	2326.4024
3.0000000000000444	270.0	2332.8721
4.000000000000042	270.0	2339.5336
4.999999999999992	270.0	2345.8876
6.000000000000026	270.0	2351.3923
6.9999999999999725	270.0	2355.4854
7.999999999999981	270.0	2357.6066
8.999999999999984	270.0	2357.2209
10.000000000000012	270.0	2353.8406
10.999999999999993	270.0	2347.0464
11.999999999999988	270.0	2336.505
12.999999999999996	270.0	2321.9844
14.0	270.0	2303.3645
14.999999999999996	270.0	2280.6444
15.999999999999995	270.0	2253.9443
16.99999999999999	270.0	2223.5029
17.999999999999986	270.0	2189.6706
18.999999999999996	270.0	2152.8977
19.999999999999993	270.0	2113.7195
21.0	270.0	2072.7377
21.999999999999996	270.0	2030.5994
23.00000000000001	270.0	1987.9748
24.000000000000004	270.0	1945.5331
24.99999999999999	270.0	1903.9202
26.000000000000007	270.0	1863.7362
26.999999999999996	270.0	1825.5153
28.000000000000007	270.0	1789.7087
28.999999999999996	270.0	1756.6709
29.999999999999993	270.0	1726.6495
31.0	270.0	1699.7798
31.99999999999999	270.0	1676.0838
33.0	270.0	1655.4738
34.0	270.0	1637.7598
35.000000000000014	270.0	1622.6616
36.0	270.0	1609.8234
37.000000000000014	270.0	1598.8317
37.99999999999999	270.0	1589.2353
38.99999999999999	270.0	1580.5657
40.00000000000001	270.0	1572.3579
40.999999999999986	270.0	1564.1715
42.0	270.0	1555.6083
43.0	270.0	1546.3296
44.00000000000001	270.0	1536.0695
45.0	270.0	1524.6442
46.000000000000014	270.0	1511.9587
47.0	270.0	1498.0085
47.999999999999986	270.0	1482.8773
49.00000000000001	270.0	1466.7308
49.99999999999999	270.0	1449.8068
51.00000000000001	270.0	1432.4027
51.99999999999999	270.0	1414.859
53.000000000000014	270.0	1397.5426
53.99999999999999	270.0	1380.8283
55.000000000000014	270.0	1365.0795
55.99999999999999	270.0	1350.631
56.999999999999986	270.0	1337.7717
58.00000000000001	270.0	1326.7304
58.99999999999999	270.0	1317.6645
60.00000000000001	270.0	1310.6509
61.0	270.0	1305.6823
62.000000000000014	270.0	1302.6658
63.0	270.0	1301.4264
64.00000000000001	270.0	1301.7139
65.0	270.0	1303.2132
65.99999999999999	270.0	1305.5578
67.0	270.0	1308.3458
68.0	270.0	1311.1568
69.00000000000001	270.0	1313.5712
70.0	270.0	1315.1881
71.00000000000001	270.0	1315.6435
72.0	270.0	1314.6267
73.00000000000001	270.0	1311.8944
74.0	270.0	1307.2821
74.99999999999999	270.0	1300.7124
76.0	270.0	1292.1991
77.0	270.0	1281.848
78.00000000000001	270.0	1269.8533
79.0	270.0	1256.4908
80.00000000000001	270.0	1242.1067
81.0	270.0	1227.1046
82.00000000000001	270.0	1211.9292
83.0	270.0	1197.0481
83.99999999999999	270.0	1182.9338
85.0	270.0	1170.0437
86.0	270.0	1158.8023
87.00000000000001	270.0	1149.5838
88.0	270.0	1142.6971
89.00000000000001	270.0	1138.3734
90.0	270.0	1136.7571
91.00000000000001	270.0	1137.9002
92.0	270.0	1141.7606
92.99999999999999	270.0	1148.2036
94.0	270.0	1157.0082
95.0	270.0	1167.8761
96.00000000000001	270.0	1180.4435
97.0	270.0	1194.2964
98.00000000000001	270.0	1208.9866
99.0	270.0	1224.0499
100.00000000000001	270.0	1239.0237
101.0	270.0	1253.4653
102.00000000000001	270.0	1266.9682
103.0	270.0	1279.1773
104.0	270.0	1289.801
105.00000000000001	270.0	1298.6217
106.0	270.0	1305.5016
107.00000000000001	270.0	1310.3861
108.0	270.0	1313.3036
109.00000000000001	270.0	1314.3617
110.0	270.0	1313.7403
111.00000000000001	270.0	1311.6823
112.0	270.0	1308.4812
113.0	270.0	1304.4682
114.00000000000001	270.0	1299.9969
115.0	270.0	1295.429
116.00000000000001	270.0	1291.1191
117.0	270.0	1287.4011
118.00000000000001	270.0	1284.5762
119.0	270.0	1282.9024
120.00000000000001	270.0	1282.5873
121.0	270.0	1283.783
122.0	270.0	1286.5841
123.00000000000001	270.0	1291.0286
124.0	270.0	1297.102
125.00000000000001	270.0	1304.7432
126.0	270.0	1313.8529
127.00000000000001	270.0	1324.304
128.0	270.0	1335.9525
129.00000000000003	270.0	1348.6493
130.0	270.0	1362.2516
131.0	270.0	1376.6339
132.0	270.0	1391.6975
133.0	270.0	1407.3778
134.0	270.0	1423.6498
135.0	270.0	1440.5314
136.0	270.0	1458.0827
137.0	270.0	1476.4039
138.00000000000003	270.0	1495.6296
139.0	270.0	1515.921
140.0	270.0	1537.4564
140.99999999999997	270.0	1560.4188
142.00000000000003	270.0	1584.9841
143.0	270.0	1611.3079
144.0	270.0	1639.5123
145.0	270.0	1669.6745
146.00000000000003	270.0	1701.8158
147.00000000000003	270.0	1735.8938
148.0	270.0	1771.7962
149.0	270.0	1809.3383
149.99999999999997	270.0	1848.2631
151.00000000000003	270.0	1888.245
152.0	270.0	1928.897
153.0	270.0	1969.7803
154.0	270.0	2010.4172
155.00000000000003	270.0	2050.3062
156.00000000000003	270.0	2088.9383
157.0	270.0	2125.815
158.0	270.0	2160.4658
158.99999999999997	270.0	2192.4659
160.00000000000003	270.0	2221.452
161.0	270.0	2247.1366
162.0	270.0	2269.3196
163.0	270.0	2287.8961
164.00000000000003	270.0	2302.8617
165.00000000000003	270.0	2314.3127
166.0	270.0	2322.4433
167.0	270.0	2327.5383
167.99999999999997	270.0	2329.9621
169.00000000000003	270.0	2330.1446
169.99999999999997	270.0	2328.5638
170.99999999999997	270.0	2325.7271
172.0	270.0	2322.1502
173.00000000000003	270.0	2318.3361
174.00000000000003	270.0	2314.7542
175.0	270.0	2311.8204
175.99999999999997	270.0	2309.8796
176.99999999999994	270.0	2309.1902
178.00000000000006	270.0	2309.9131
179.0000000000001	270.0	2312.1032
180.0	270.0	2315.7067
179.0000000000001	90.0	2320.5613
178.00000000000006	90.0	2326.4024
176.99999999999994	90.0	2332.8721
176.00000000000006	90.0	2339.5336
175.0	90.0	2345.8876
174.00000000000003	90.0	2351.3923
172.99999999999997	90.0	2355.4854
172.0	90.0	2357.6066
171.00000000000003	90.0	2357.2209
170.00000000000003	90.0	2353.8406
168.99999999999997	90.0	2347.0464
167.99999999999997	90.0	2336.505
167.00000000000003	90.0	2321.9844
166.00000000000003	90.0	2303.3645
165.00000000000003	90.0	2280.6444
163.99999999999997	90.0	2253.9443
163.0	90.0	2223.5029
162.00000000000003	90.0	2189.6706
161.00000000000003	90.0	2152.8977
160.0	90.0	2113.7195
159.0	90.0	2072.7377
158.00000000000003	90.0	2030.5994
157.00000000000003	90.0	1987.9748
156.00000000000003	90.0	1945.5331
154.99999999999997	90.0	1903.9202
154.0	90.0	1863.7362
153.00000000000003	90.0	1825.5153
152.0	90.0	1789.7087
150.99999999999997	90.0	1756.6709
150.0	90.0	1726.6495
149.0	90.0	1699.7798
148.0	90.0	1676.0838
147.00000000000003	90.0	1655.4738
146.0	90.0	1637.7598
145.0	90.0	1622.6616
144.00000000000003	90.0	1609.8234
143.0	90.0	1598.8317
142.0	90.0	1589.2353
140.99999999999997	90.0	1580.5657
140.00000000000003	90.0	1572.3579
139.00000000000003	90.0	1564.1715
138.00000000000003	90.0	1555.6083
137.0	90.0	1546.3296
136.0	90.0	1536.0695
135.00000000000003	90.0	1524.6442
134.00000000000003	90.0	1511.9587
132.99999999999997	90.0	1498.0085
131.99999999999997	90.0	1482.8773
131.00000000000003	90.0	1466.7308
130.00000000000003	90.0	1449.8068
129.00000000000003	90.0	1432.4027
128.0	90.0	1414.859
126.99999999999999	90.0	1397.5426
126.00000000000003	90.0	1380.8283
125.00000000000004	90.0	1365.0795
123.99999999999997	90.0	1350.631
122.99999999999999	90.0	1337.7717
122.0	90.0	1326.7304
121.0	90.0	1317.6645
120.00000000000001	90.0	1310.6509
119.0	90.0	1305.6823
118.00000000000001	90.0	1302.6658
117.00000000000003	90.0	1301.4264
116.00000000000004	90.0	1301.7139
115.0	90.0	1303.2132
114.00000000000001	90.0	1305.5578
113.00000000000001	90.0	1308.3458
112.00000000000003	90.0	1311.1568
111.00000000000004	90.0	1313.5712
110.0	90.0	1315.1881
109.00000000000001	90.0	1315.6435
108.00000000000003	90.0	1314.6267
107.00000000000004	90.0	1311.8944
106.0	90.0	1307.2821
105.0	90.0	1300.7124
104.00000000000001	90.0	1292.1991
103.00000000000001	90.0	1281.848
102.00000000000003	90.0	1269.8533
100.99999999999999	90.0	1256.4908
100.0	90.0	1242.1067
99.00000000000001	90.0	1227.1046
98.00000000000003	90.0	1211.9292
96.99999999999999	90.0	1197.0481
96.0	90.0	1182.9338
95.0	90.0	1170.0437
94.00000000000001	90.0	1158.8023
93.00000000000003	90.0	1149.5838
91.99999999999999	90.0	1142.6971
91.0	90.0	1138.3734
90.0	45.0	873.0556
89.0	45.0	875.0245
88.0	45.0	881.8886
87.00000000000001	45.0	893.3818
86.0	45.0	909.1042
85.0	45.0	928.5397
84.0	45.0	951.078
83.0	45.0	976.0403
82.0	45.0	1002.7067
81.0	45.0	1030.3454
80.0	45.0	1058.2408
79.0	45.0	1085.7207
78.00000000000001	45.0	1112.1805
77.0	45.0	1137.1036
76.0	45.0	1160.0779
75.0	45.0	1180.8065
74.0	45.0	1199.1131
73.0	45.0	1214.9419
72.0	45.0	1228.3515
71.0	45.0	1239.5048
70.0	45.0	1248.653
69.00000000000001	45.0	1256.1169
68.0	45.0	1262.2658
67.0	45.0	1267.4938
66.0	45.0	1272.1968
65.0	45.0	1276.7498
64.0	45.0	1281.4866
63.0	45.0	1286.6815
62.0	45.0	1292.5365
61.0	45.0	1299.1713
60.00000000000001	45.0	1306.6195
59.00000000000001	45.0	1314.8293
58.00000000000001	45.0	1323.6698
57.00000000000001	45.0	1332.9417
55.99999999999999	45.0	1342.3926
55.00000000000001	45.0	1351.7355
54.0	45.0	1360.6701
53.00000000000001	45.0	1368.9053
52.0	45.0	1376.182
51.00000000000001	45.0	1382.2954
50.00000000000001	45.0	1387.1142
49.00000000000001	45.0	1390.5976
48.0	45.0	1392.8075
47.0	45.0	1393.9159
46.00000000000001	45.0	1394.2069
45.0	45.0	1394.0728
44.0	45.0	1394.0043
43.0	45.0	1394.5752
42.0	45.0	1396.4219
41.0	45.0	1400.2194
40.00000000000001	45.0	1406.6525
39.0	45.0	1416.3865
37.99999999999999	45.0	1430.0363
37.0	45.0	1448.1358
36.0	45.0	1471.1103
35.0	45.0	1499.251
34.0	45.0	1532.695
33.0	45.0	1571.4106
31.99999999999999	45.0	1615.1884
31.0	45.0	1663.6404
30.000000000000004	45.0	1716.2057
29.00000000000001	45.0	1772.1633
28.000000000000007	45.0	1830.6528
27.00000000000001	45.0	1890.6998
25.999999999999996	45.0	1951.248
25.000000000000004	45.0	2011.1944
24.000000000000004	45.0	2069.4282
22.999999999999993	45.0	2124.8699
21.999999999999996	45.0	2176.5108
21.0	45.0	2223.45
20.00000000000001	45.0	2264.9283
19.000000000000014	45.0	2300.3568
18.00000000000001	45.0	2329.3391
17.000000000000007	45.0	2351.6866
15.999999999999995	45.0	2367.4253
14.999999999999996	45.0	2376.795
14.0	45.0	2380.2391
12.999999999999996	45.0	2378.3868
12.000000000000018	45.0	2372.0276
10.999999999999993	45.0	2362.079
10.000000000000012	45.0	2349.5496
8.999999999999984	45.0	2335.4969
7.999999999999981	45.0	2320.9843
7.000000000000025	45.0	2307.0366
6.000000000000026	45.0	2294.5977
4.999999999999992	45.0	2284.4899
4.000000000000042	45.0	2277.3798
3.0000000000000444	45.0	2273.7486
1.9999999999999472	45.0	2273.8711
0.9999999999999002	45.0	2277.8021
0.0	45.0	2285.3726
0.9999999999999002	225.0	2296.1939
1.9999999999999472	225.0	2309.6726
3.0000000000000444	225.0	2325.0322
4.000000000000042	225.0	2341.3436
4.999999999999992	225.0	2357.562
6.000000000000026	225.0	2372.5681
6.9999999999999725	225.0	2385.2141
7.999999999999981	225.0	2394.3698
8.999999999999984	225.0	2398.9695
10.000000000000012	225.0	2398.0568
10.999999999999993	225.0	2390.8244
11.999999999999988	225.0	2376.65
12.999999999999996	225.0	2355.1239
14.0	225.0	2326.069
14.999999999999996	225.0	2289.5523
15.999999999999995	225.0	2245.8864
16.99999999999999	225.0	2195.6216
17.999999999999986	225.0	2139.5296
18.999999999999996	225.0	2078.5781
19.999999999999993	225.0	2013.8976
21.0	225.0	1946.7431
21.999999999999996	225.0	1878.4501
23.00000000000001	225.0	1810.3885
24.000000000000004	225.0	1743.9148
24.99999999999999	225.0	1680.3254
26.000000000000007	225.0	1620.8126
26.999999999999996	225.0	1566.4247
28.000000000000007	225.0	1518.0319
28.999999999999996	225.0	1476.2994
29.999999999999993	225.0	1441.6685
31.0	225.0	1414.3466
31.99999999999999	225.0	1394.3057
33.0	225.0	1381.2902
34.0	225.0	1374.8332
35.000000000000014	225.0	1374.28
36.0	225.0	1378.8188
37.000000000000014	225.0	1387.5161
37.99999999999999	225.0	1399.3559
38.99999999999999	225.0	1413.2815
40.00000000000001	225.0	1428.2371
40.999999999999986	225.0	1443.2076
42.0	225.0	1457.2569
43.0	225.0	1469.56
44.00000000000001	225.0	1479.4304
45.0	225.0	1486.3409
46.000000000000014	225.0	1489.9361
47.0	225.0	1490.038
47.999999999999986	225.0	1486.6435
49.00000000000001	225.0	1479.9144
49.99999999999999	225.0	1470.1602
51.00000000000001	225.0	1457.8158
51.99999999999999	225.0	1443.4132
53.000000000000014	225.0	1427.551
53.99999999999999	225.0	1410.8607
55.000000000000014	225.0	1393.9733
55.99999999999999	225.0	1377.4868
56.999999999999986	225.0	1361.9361
58.00000000000001	225.0	1347.7666
58.99999999999999	225.0	1335.3131
60.00000000000001	225.0	1324.7841
61.0	225.0	1316.2534
62.000000000000014	225.0	1309.6575
63.0	225.0	1304.8004
64.00000000000001	225.0	1301.3647
65.0	225.0	1298.9291
65.99999999999999	225.0	1296.9902
67.0	225.0	1294.9888
68.0	225.0	1292.3391
69.00000000000001	225.0	1288.4588
70.0	225.0	1282.8
71.00000000000001	225.0	1274.8774
72.0	225.0	1264.2956
73.00000000000001	225.0	1250.7704
74.0	225.0	1234.147
74.99999999999999	225.0	1214.4111
76.0	225.0	1191.6946
77.0	225.0	1166.2743
78.00000000000001	225.0	1138.5644
79.0	225.0	1109.1026
80.00000000000001	225.0	1078.531
81.0	225.0	1047.572
82.00000000000001	225.0	1017.0006
83.0	225.0	987.6147
83.99999999999999	225.0	960.2038
85.0	225.0	935.5181
86.0	225.0	914.2392
87.00000000000001	225.0	896.9534
88.0	225.0	884.1298
89.00000000000001	225.0	876.1017
90.0	225.0	873.0556
91.00000000000001	225.0	875.0245
92.0	225.0	881.8886
92.99999999999999	225.0	893.3818
94.0	225.0	909.1042
95.0	225.0	928.5397
96.00000000000001	225.0	951.078
97.0	225.0	976.0403
98.00000000000001	225.0	1002.7067
99.0	225.0	1030.3454
100.00000000000001	225.0	1058.2408
101.0	225.0	1085.7207
102.00000000000001	225.0	1112.1805
103.0	225.0	1137.1036
104.0	225.0	1160.0779
105.00000000000001	225.0	1180.8065
106.0	225.0	1199.1131
107.00000000000001	225.0	1214.9419
108.0	225.0	1228.3515
109.00000000000001	225.0	1239.5048
110.0	225.0	1248.653
111.00000000000001	225.0	1256.1169
112.0	225.0	1262.2658
113.0	225.0	1267.4938
114.00000000000001	225.0	1272.1968
115.0	225.0	1276.7498
116.00000000000001	225.0	1281.4866
117.0	225.0	1286.6815
118.00000000000001	225.0	1292.5365
119.0	225.0	1299.1713
120.00000000000001	225.0	1306.6195
121.0	225.0	1314.8293
122.0	225.0	1323.6698
123.00000000000001	225.0	1332.9417
124.0	225.0	1342.3926
125.00000000000001	225.0	1351.7355
126.0	225.0	1360.6701
127.00000000000001	225.0	1368.9053
128.0	225.0	1376.182
129.00000000000003	225.0	1382.2954
130.0	225.0	1387.1142
131.0	225.0	1390.5976
132.0	225.0	1392.8075
133.0	225.0	1393.9159
134.0	225.0	1394.2069
135.0	225.0	1394.0728
136.0	225.0	1394.0043
137.0	225.0	1394.5752
138.00000000000003	225.0	1396.4219
139.0	225.0	1400.2194
140.0	225.0	1406.6525
140.99999999999997	225.0	1416.3865
142.00000000000003	225.0	1430.0363
143.0	225.0	1448.1358
144.0	225.0	1471.1103
145.0	225.0	1499.251
146.00000000000003	225.0	1532.695
147.00000000000003	225.0	1571.4106
148.0	225.0	1615.1884
149.0	225.0	1663.6404
149.99999999999997	225.0	1716.2057
151.00000000000003	225.0	1772.1633
152.0	225.0	1830.6528
153.0	225.0	1890.6998
154.0	225.0	1951.248
155.00000000000003	225.0	2011.1944
156.00000000000003	225.0	2069.4282
157.0	225.0	2124.8699
158.0	225.0	2176.5108
158.99999999999997	225.0	2223.45
160.00000000000003	225.0	2264.9283
161.0	225.0	2300.3568
162.0	225.0	2329.3391
163.0	225.0	2351.6866
164.00000000000003	225.0	2367.4253
165.00000000000003	225.0	2376.795
166.0	225.0	2380.2391
167.0	225.0	2378.3868
167.99999999999997	225.0	2372.0276
169.00000000000003	225.0	2362.079
169.99999999999997	225.0	2349.5496
170.99999999999997	225.0	2335.4969
172.0	225.0	2320.9843
173.00000000000003	225.0	2307.0366
174.00000000000003	225.0	2294.5977
175.0	225.0	2284.4899
175.99999999999997	225.0	2277.3798
176.99999999999994	225.0	2273.7486
178.00000000000006	225.0	2273.8711
179.0000000000001	225.0	2277.8021
180.0	225.0	2285.3726
179.0000000000001	45.0	2296.1939
178.00000000000006	45.0	2309.6726
176.99999999999994	45.0	2325.0322
176.00000000000006	45.0	2341.3436
175.0	45.0	2357.562
174.00000000000003	45.0	2372.5681
172.99999999999997	45.0	2385.2141
172.0	45.0	2394.3698
171.00000000000003	45.0	2398.9695
170.00000000000003	45.0	2398.0568
168.99999999999997	45.0	2390.8244
167.99999999999997	45.0	2376.65
167.00000000000003	45.0	2355.1239
166.00000000000003	45.0	2326.069
165.00000000000003	45.0	2289.5523
163.99999999999997	45.0	2245.8864
163.0	45.0	2195.6216
162.00000000000003	45.0	2139.5296
161.00000000000003	45.0	2078.5781
160.0	45.0	2013.8976
159.0	45.0	1946.7431
158.00000000000003	45.0	1878.4501
157.00000000000003	45.0	1810.3885
156.00000000000003	45.0	1743.9148
154.99999999999997	45.0	1680.3254
154.0	45.0	1620.8126
153.00000000000003	45.0	1566.4247
152.0	45.0	1518.0319
150.99999999999997	45.0	1476.2994
150.0	45.0	1441.6685
149.0	45.0	1414.3466
148.0	45.0	1394.3057
147.00000000000003	45.0	1381.2902
146.0	45.0	1374.8332
145.0	45.0	1374.28
144.00000000000003	45.0	1378.8188
143.0	45.0	1387.5161
142.0	45.0	1399.3559
140.99999999999997	45.0	1413.2815
140.00000000000003	45.0	1428.2371
139.00000000000003	45.0	1443.2076
138.00000000000003	45.0	1457.2569
137.0	45.0	1469.56
136.0	45.0	1479.4304
135.00000000000003	45.0	1486.3409
134.00000000000003	45.0	1489.9361
132.99999999999997	45.0	1490.038
131.99999999999997	45.0	1486.6435
131.00000000000003	45.0	1479.9144
130.00000000000003	45.0	1470.1602
129.00000000000003	45.0	1457.8158
128.0	45.0	1443.4132
126.99999999999999	45.0	1427.551
126.00000000000003	45.0	1410.8607
125.00000000000004	45.0	1393.9733
123.99999999999997	45.0	1377.4868
122.99999999999999	45.0	1361.9361
122.0	45.0	1347.7666
121.0	45.0	1335.3131
120.00000000000001	45.0	1324.7841
119.0	45.0	1316.2534
118.00000000000001	45.0	1309.6575
117.00000000000003	45.0	1304.8004
116.00000000000004	45.0	1301.3647
115.0	45.0	1298.9291
114.00000000000001	45.0	1296.9902
113.00000000000001	45.0	1294.9888
112.00000000000003	45.0	1292.3391
111.00000000000004	45.0	1288.4588
110.0	45.0	1282.8
109.00000000000001	45.0	1274.8774
108.00000000000003	45.0	1264.2956
107.00000000000004	45.0	1250.7704
106.0	45.0	1234.147
105.0	45.0	1214.4111
104.00000000000001	45.0	1191.6946
103.00000000000001	45.0	1166.2743
102.00000000000003	45.0	1138.5644
100.99999999999999	45.0	1109.1026
100.0	45.0	1078.531
99.00000000000001	45.0	1047.572
98.00000000000003	45.0	1017.0006
96.99999999999999	45.0	987.6147
96.0	45.0	960.2038
95.0	45.0	935.5181
94.00000000000001	45.0	914.2392
93.00000000000003	45.0	896.9534
91.99999999999999	45.0	884.1298
91.0	45.0	876.1017
90.0	0.0	1303.2477
89.29291116952395	0.7071426817872533	1301.1213
88.58593006627854	1.4145007934175506	1301.6127
87.87916453235917	2.122289895867879	1304.7276
87.1727226397129	2.8307258121018455	1310.3442
86.4667128053692	3.540024757356371	1318.2178
85.76124390703504	4.250403468570711	1327.9909
85.05642539917308	4.962079332655645	1339.2087
84.3523674296794	5.675270513286652	1351.3393
83.64918095727445	6.390196075887154	1363.7971
82.94697786971682	7.107076110446535	1375.9695
82.24587110294536	7.826131851792348	1387.2442
81.54597476125012	8.547585796906942	1397.0378
80.84740423856572	9.271661818845425	1404.8226
80.15027634097487	9.998585276774412	1410.1515
79.45470941050044	10.728583121609057	1412.6796
78.76082345025607	11.461883996679509	1412.1817
78.0687402510143	12.198718332806749	1408.5646
77.37858351923944	12.939318437111838	1401.8739
76.69047900661849	13.683918574821595	1392.2948
76.00455464110858	14.432755043267381	1380.147
75.32094065950206	15.186066237202516	1365.8742
74.63976974149092	15.944092704486447	1350.0274
73.96117714519126	16.707077191101824	1333.2444
73.28530084406378	17.47526467438212	1316.2253
72.61228166514054	18.2489023832344	1299.7047
71.94226342843773	19.028239804042187	1284.4234
71.27539308740191	19.813528670829413	1271.0988
70.61182087020094	20.605022938156644	1260.3964
69.95170042163069	21.402978735106455	1252.9036
69.29518894536457	22.207654298596484	1249.1066
68.64244734622547	23.019309884136224	1249.3714
67.99364037210603	23.838207652018653	1253.9293
67.34893675510656	24.664611526811417	1262.8689
66.70850935139694	25.498787027884514	1276.1327
66.07253527924108	26.34100106858589	1293.5204
65.44119605454999	27.191521721553002	1314.6976
64.81467772324949	28.05061794753063	1339.2101
64.19317098966519	28.918559284955432	1366.5022
63.57687134003648	29.79561549746857	1395.9394
62.965979160175145	30.68205617643342	1426.8335
62.36069984618289	31.5781502954692	1458.4698
61.761243907035045	32.484165713968785	1490.1341
61.16782705772538	33.400368626554155	1521.1395
60.58067030155157	34.32702295544232	1550.8515
59.99999999999999	35.264389682754654	1578.7095
59.42604792856702	36.212726119908915	1604.2447
58.8590513167294	37.17228511139536	1627.0942
58.29925287015328	38.143314170462425	1647.0085
57.74690077310915	39.12605454453247	1663.855
57.20224866894282	40.12074020854298	1677.615
56.66555561634145	41.12759678487194	1688.3764
56.13708601903233	42.14684038906587	1696.3205
55.61710952646371	43.178676401255004	1701.7055
55.10590090294487	44.223298163918535	1704.8467
54.60373986267208	45.28088560756104	1706.0935
54.11091086804023	46.3516038068849	1705.8065
53.62770288864506	47.435601471194154	1704.3333
53.154409118419395	48.53300937404573	1701.9864
52.691326648427214	49.643938728569864	1699.023
52.23875609296496	50.76847951640774	1695.6274
51.79700116679687	51.90669877984987	1691.8988
51.36636821158484	53.05863888848747	1687.8428
50.94716566986906	54.22431579349069	1683.3681
50.539703505316	55.40371728447302	1678.2896
50.14429256838126	56.59680126575802	1672.3357
49.76124390703504	57.80349407069134	1665.1617
49.390868022772075	59.02368883439022	1656.3667
49.03347407277117	60.25724394694163	1645.5153
48.68936901978189	61.503981610489745	1632.1616
48.35885673209022	62.76368652482927	1615.8752
48.04223703674405	64.03610472697835	1596.2674
47.73980473009234	65.32094261067617	1573.0174
47.45184855059514	66.61786615176922	1545.8962
47.178650119779434	67.92650036495783	1514.7876
46.920482858129056	69.2464290163152	1479.7052
46.677610883583455	70.57719461432482	1440.8046
46.450287901158305	71.91829869987819	1398.3895
46.23875609296496	73.2692024527246	1352.9127
46.043245018569806	74.62932762827676	1304.9696
45.86397053617525	75.99805783448308	1255.287
45.701133755495384	77.37474015373697	1204.7044
45.554920033420714	78.7586871095844	1154.152
45.42549802359849	80.14917897242118	1104.6228
45.31301879088406	81.5454663925662	1057.1417
45.21761500123496	82.94677334320139	1012.7333
45.1394001970194	84.35230034984485	972.3873
45.07846816689916	85.76122797743554	937.0258
45.03489241843145	87.17272054092642	907.4716
45.00872576033472	88.58593000067151	884.4193
45.0	90.0	868.4116
45.00872576033472	91.41406999932849	859.8199
45.03489241843145	92.82727945907358	858.8312
45.07846816689916	94.23877202256445	865.4415
45.1394001970194	95.64769965015516	879.4562
45.21761500123496	97.05322665679864	900.4971
45.31301879088406	98.45453360743382	928.016
45.42549802359848	99.85082102757882	961.3145
45.554920033420714	101.2413128904156	999.5683
45.701133755495384	102.62525984626303	1041.8572
45.86397053617525	104.00194216551692	1087.1964
46.043245018569806	105.37067237172324	1134.5707
46.238756092964955	106.73079754727539	1182.9692
46.450287901158305	108.08170130012182	1231.4181
46.677610883583455	109.42280538567519	1279.0123
46.920482858129056	110.7535709836848	1324.9429
47.178650119779434	112.07349963504215	1368.5204
47.45184855059512	113.38213384823077	1409.1923
47.73980473009234	114.67905738932384	1446.5551
48.04223703674405	115.96389527302166	1480.3597
48.3588567320902	117.23631347517073	1510.5098
48.68936901978189	118.49601838951025	1537.055
49.03347407277117	119.74275605305839	1560.1769
49.39086802277208	120.9763111656098	1580.171
49.76124390703504	122.19650592930867	1597.424
50.14429256838125	123.40319873424197	1612.3873
50.539703505316005	124.59628271552698	1625.5491
50.94716566986905	125.77568420650928	1637.4061
51.36636821158484	126.94136111151253	1648.4349
51.79700116679685	128.09330122015012	1659.0657
52.23875609296496	129.23152048359225	1669.6588
52.691326648427214	130.35606127143015	1680.4859
53.154409118419395	131.46699062595425	1691.7148
53.62770288864506	132.56439852880584	1703.4008
54.11091086804023	133.64839619311508	1715.4835
54.60373986267208	134.71911439243897	1727.7893
55.10590090294487	135.7767018360815	1740.0401
55.617109526463715	136.821323598745	1751.8671
56.13708601903233	137.8531596109341	1762.8294
56.66555561634144	138.87240321512806	1772.4361
57.20224866894282	139.879259791457	1780.1716
57.74690077310915	140.87394545546752	1785.5223
58.29925287015328	141.85668582953758	1788.0037
58.8590513167294	142.82771488860465	1787.1867
59.42604792856702	143.7872738800911	1782.7215
59.99999999999999	144.73561031724535	1774.3588
60.58067030155157	145.6729770445577	1761.9665
61.16782705772538	146.59963137344585	1745.5417
61.76124390703503	147.5158342860312	1725.2164
62.36069984618289	148.4218497045308	1701.2584
62.96597916017513	149.31794382356657	1674.0656
63.57687134003648	150.20438450253144	1644.1547
64.19317098966519	151.08144071504458	1612.1444
64.81467772324949	151.9493820524694	1578.7344
65.44119605454999	152.808478278447	1544.6803
66.0725352792411	153.65899893141415	1510.7661
66.70850935139694	154.5012129721155	1477.775
67.34893675510656	155.3353884731886	1446.4601
67.99364037210603	156.16179234798136	1417.5158
68.64244734622547	156.98069011586378	1391.5517
69.29518894536457	157.79234570140352	1369.0702
69.95170042163069	158.59702126489356	1350.4473
70.61182087020094	159.39497706184335	1335.9197
71.2753930874019	160.1864713291706	1325.5769
71.94226342843773	160.9717601959578	1319.3596
72.61228166514054	161.7510976167656	1317.064
73.28530084406377	162.52473532561788	1318.352
73.96117714519126	163.29292280889817	1322.7674
74.63976974149092	164.05590729551355	1329.7559
75.32094065950206	164.8139337627975	1338.6894
76.00455464110858	165.56724495673262	1348.8938
76.6904790066185	166.31608142517842	1359.6774
77.37858351923944	167.06068156288816	1370.3599
78.0687402510143	167.80128166719328	1380.3016
78.76082345025605	168.5381160033205	1388.9289
79.45470941050044	169.27141687839094	1395.7581
80.15027634097487	170.0014147232256	1400.4138
80.84740423856572	170.72833818115458	1402.6436
81.54597476125012	171.45241420309307	1402.326
82.24587110294536	172.17386814820765	1399.4732
82.94697786971682	172.8929238895535	1394.2277
83.64918095727445	173.60980392411287	1386.8534
84.3523674296794	174.32472948671335	1377.7207
85.05642539917308	175.03792066734437	1367.2879
85.76124390703502	175.7495965314293	1356.0776
86.4667128053692	176.45997524264365	1344.6516
87.17272263971289	177.16927418789817	1333.5833
87.87916453235917	177.87771010413212	1323.4301
88.58593006627854	178.58549920658245	1314.7067
89.29291116952395	179.29285731821275	1307.8599
90.0	180.0	1303.2477
90.70708883047607	180.70714268178725	1301.1213
91.41406993372146	181.41450079341755	1301.6127
92.12083546764083	182.12228989586788	1304.7276
92.82727736028711	182.83072581210183	1310.3442
93.5332871946308	183.54002475735635	1318.2178
94.23875609296496	184.2504034685707	1327.9909
94.94357460082692	184.96207933265563	1339.2087
95.64763257032061	185.67527051328665	1351.3393
96.35081904272555	186.39019607588713	1363.7971
97.05302213028318	187.1070761104465	1375.9695
97.75412889705464	187.82613185179233	1387.2442
98.45402523874989	188.54758579690696	1397.0378
99.15259576143428	189.27166181884542	1404.8226
99.84972365902512	189.9985852767744	1410.1515
100.54529058949956	190.72858312160906	1412.6796
101.23917654974393	191.4618839966795	1412.1817
101.93125974898571	192.19871833280675	1408.5646
102.62141648076054	192.93931843711184	1401.8739
103.30952099338153	193.68391857482158	1392.2948
103.99544535889142	194.43275504326738	1380.147
104.67905934049796	195.18606623720254	1365.8742
105.36023025850908	195.94409270448645	1350.0274
106.03882285480874	196.7070771911018	1333.2444
106.71469915593623	197.4752646743821	1316.2253
107.38771833485946	198.2489023832344	1299.7047
108.05773657156229	199.0282398040422	1284.4234
108.7246069125981	199.8135286708294	1271.0988
109.38817912979906	200.60502293815665	1260.3964
110.04829957836931	201.40297873510644	1252.9036
110.70481105463544	202.20765429859648	1249.1066
111.35755265377453	203.01930988413622	1249.3714
112.00635962789397	203.83820765201864	1253.9293
112.65106324489344	204.6646115268114	1262.8689
113.29149064860306	205.49878702788448	1276.1327
113.92746472075892	206.34100106858588	1293.5204
114.55880394545001	207.191521721553	1314.6976
115.18532227675053	208.05061794753064	1339.2101
115.8068290103348	208.91855928495542	1366.5022
116.42312865996352	209.79561549746856	1395.9394
117.03402083982486	210.68205617643343	1426.8335
117.63930015381712	211.5781502954692	1458.4698
118.23875609296496	212.48416571396876	1490.1341
118.83217294227461	213.40036862655413	1521.1395
119.41932969844842	214.32702295544232	1550.8515
120.00000000000001	215.26438968275463	1578.7095
120.573952071433	216.2127261199089	1604.2447
121.14094868327061	217.17228511139535	1627.0942
121.70074712984672	218.14331417046245	1647.0085
122.25309922689084	219.12605454453248	1663.855
122.79775133105717	220.12074020854297	1677.615
123.33444438365854	221.1275967848719	1688.3764
123.86291398096766	222.1468403890659	1696.3205
124.38289047353629	223.17867640125502	1701.7055
124.89409909705513	224.2232981639185	1704.8467
125.39626013732791	225.28088560756103	1706.0935
125.88908913195978	226.35160380688492	1705.8065
126.37229711135494	227.43560147119416	1704.3333
126.84559088158062	228.53300937404572	1701.9864
127.30867335157278	229.64393872856982	1699.023
127.76124390703504	230.7684795164077	1695.6274
128.20299883320317	231.90669877984988	1691.8988
128.6336317884152	233.05863888848748	1687.8428
129.05283433013093	234.2243157934907	1683.3681
129.460296494684	235.40371728447298	1678.2896
129.85570743161875	236.59680126575802	1672.3357
130.23875609296496	237.80349407069136	1665.1617
130.60913197722795	239.0236888343902	1656.3667
130.96652592722884	240.25724394694157	1645.5153
131.31063098021812	241.50398161048972	1632.1616
131.6411432679098	242.7636865248293	1615.8752
131.95776296325596	244.03610472697835	1596.2674
132.26019526990768	245.32094261067616	1573.0174
132.54815144940486	246.6178661517692	1545.8962
132.8213498802206	247.92650036495786	1514.7876
133.07951714187095	249.2464290163152	1479.7052
133.32238911641656	250.5771946143248	1440.8046
133.5497120988417	251.91829869987816	1398.3895
133.76124390703504	253.26920245272458	1352.9127
133.9567549814302	254.62932762827677	1304.9696
134.13602946382477	255.99805783448306	1255.287
134.2988662445046	257.374740153737	1204.7044
134.44507996657927	258.75868710958434	1154.152
134.57450197640154	260.14917897242117	1104.6228
134.68698120911597	261.5454663925662	1057.1417
134.78238499876502	262.94677334320136	1012.7333
134.8605998029806	264.3523003498448	972.3873
134.92153183310086	265.7612279774355	937.0258
134.96510758156856	267.17272054092643	907.4716
134.99127423966527	268.5859300006715	884.4193
135.0	270.0	868.4116
134.99127423966527	271.4140699993285	859.8199
134.96510758156856	272.82727945907357	858.8312
134.92153183310086	274.2387720225645	865.4415
134.8605998029806	275.6476996501551	879.4562
134.78238499876502	277.0532266567986	900.4971
134.68698120911597	278.45453360743375	928.016
134.57450197640154	279.85082102757883	961.3145
134.44507996657927	281.2413128904156	999.5683
134.2988662445046	282.625259846263	1041.8572
134.13602946382477	284.0019421655169	1087.1964
133.9567549814302	285.37067237172323	1134.5707
133.76124390703504	286.7307975472754	1182.9692
133.5497120988417	288.08170130012184	1231.4181
133.32238911641656	289.42280538567513	1279.0123
133.07951714187095	290.75357098368477	1324.9429
132.82134988022057	292.0734996350422	1368.5204
132.54815144940488	293.38213384823075	1409.1923
132.26019526990768	294.6790573893238	1446.5551
131.95776296325596	295.9638952730216	1480.3597
131.6411432679098	297.23631347517073	1510.5098
131.31063098021812	298.49601838951025	1537.055
130.96652592722884	299.7427560530584	1560.1769
130.60913197722795	300.9763111656098	1580.171
130.23875609296496	302.1965059293086	1597.424
129.85570743161873	303.403198734242	1612.3873
129.46029649468403	304.59628271552697	1625.5491
129.05283433013096	305.7756842065093	1637.4061
128.6336317884152	306.9413611115125	1648.4349
128.20299883320317	308.0933012201501	1659.0657
127.76124390703505	309.23152048359225	1669.6588
127.3086733515728	310.3560612714301	1680.4859
126.84559088158062	311.4669906259543	1691.7148
126.37229711135495	312.5643985288058	1703.4008
125.88908913195978	313.6483961931151	1715.4835
125.39626013732794	314.71911439243894	1727.7893
124.89409909705515	315.77670183608143	1740.0401
124.38289047353632	316.821323598745	1751.8671
123.86291398096766	317.85315961093414	1762.8294
123.33444438365856	318.8724032151281	1772.4361
122.7977513310572	319.879259791457	1780.1716
122.25309922689087	320.8739454554675	1785.5223
121.70074712984675	321.8566858295375	1788.0037
121.14094868327061	322.82771488860465	1787.1867
120.57395207143298	323.7872738800911	1782.7215
120.00000000000001	324.73561031724535	1774.3588
119.41932969844845	325.6729770445577	1761.9665
118.83217294227461	326.59963137344585	1745.5417
118.23875609296496	327.51583428603124	1725.2164
117.63930015381712	328.4218497045308	1701.2584
117.03402083982486	329.31794382356657	1674.0656
116.42312865996352	330.2043845025314	1644.1547
115.8068290103348	331.08144071504455	1612.1444
115.18532227675053	331.9493820524694	1578.7344
114.55880394545002	332.808478278447	1544.6803
113.92746472075895	333.6589989314141	1510.7661
113.29149064860304	334.5012129721155	1477.775
112.65106324489344	335.3353884731886	1446.4601
112.00635962789399	336.16179234798136	1417.5158
111.35755265377455	336.98069011586375	1391.5517
110.70481105463546	337.79234570140346	1369.0702
110.04829957836931	338.59702126489356	1350.4473
109.38817912979906	339.39497706184335	1335.9197
108.7246069125981	340.18647132917056	1325.5769
108.05773657156229	340.9717601959578	1319.3596
107.38771833485946	341.7510976167656	1317.064
106.71469915593623	342.5247353256179	1318.352
106.03882285480876	343.2929228088982	1322.7674
105.36023025850909	344.0559072955135	1329.7559
104.67905934049797	344.8139337627975	1338.6894
103.99544535889142	345.5672449567326	1348.8938
103.30952099338151	346.3160814251784	1359.6774
102.62141648076056	347.06068156288813	1370.3599
101.93125974898572	347.8012816671932	1380.3016
101.23917654974393	348.5381160033205	1388.9289
100.54529058949956	349.27141687839094	1395.7581
99.84972365902513	350.0014147232256	1400.4138
99.15259576143428	350.7283381811546	1402.6436
98.4540252387499	351.45241420309304	1402.326
97.75412889705464	352.17386814820765	1399.4732
97.05302213028318	352.89292388955346	1394.2277
96.35081904272556	353.60980392411284	1386.8534
95.64763257032062	354.32472948671335	1377.7207
94.94357460082692	355.03792066734434	1367.2879
94.23875609296496	355.7495965314293	1356.0776
93.53328719463082	356.4599752426436	1344.6516
92.82727736028713	357.16927418789817	1333.5833
92.12083546764086	357.8777101041321	1323.4301
91.41406993372146	358.5854992065825	1314.7067
90.70708883047607	359.2928573182127	1307.8599
90.0	90.0	1164.692
89.29291116952395	89.29285731821274	1163.7974
88.58593006627854	88.58549920658245	1164.7499
87.87916453235917	87.87771010413212	1167.4182
87.1727226397129	87.16927418789815	1171.6018
86.4667128053692	86.45997524264364	1177.0396
85.76124390703504	85.74959653142929	1183.422
85.05642539917308	85.03792066734437	1190.4035
84.3523674296794	84.32472948671335	1197.6167
83.64918095727445	83.60980392411285	1204.6868
82.94697786971682	82.89292388955346	1211.2458
82.24587110294536	82.17386814820766	1216.9463
81.54597476125012	81.45241420309306	1221.4739
80.84740423856572	80.72833818115458	1224.5579
80.15027634097487	80.0014147232256	1225.9808
79.45470941050044	79.27141687839094	1225.5847
78.76082345025607	78.5381160033205	1223.2758
78.0687402510143	77.80128166719327	1219.0264
77.37858351923944	77.06068156288816	1212.8743
76.69047900661849	76.31608142517841	1204.9206
76.00455464110858	75.56724495673262	1195.3242
75.32094065950206	74.81393376279749	1184.2959
74.63976974149092	74.05590729551355	1172.0902
73.96117714519126	73.29292280889818	1158.9959
73.28530084406378	72.52473532561788	1145.327
72.61228166514054	71.7510976167656	1131.4124
71.94226342843773	70.97176019595781	1117.5861
71.27539308740191	70.18647132917059	1104.1778
70.61182087020094	69.39497706184336	1091.5048
69.95170042163069	68.59702126489356	1079.8641
69.29518894536457	67.79234570140352	1069.5265
68.64244734622547	66.98069011586378	1060.7318
67.99364037210603	66.16179234798135	1053.6854
67.34893675510656	65.33538847318859	1048.5563
66.70850935139694	64.50121297211548	1045.4768
66.07253527924108	63.65899893141411	1044.5426
65.44119605454999	62.808478278447	1045.8148
64.81467772324949	61.94938205246937	1049.3219
64.19317098966519	61.081440715044565	1055.0631
63.57687134003648	60.20438450253143	1063.0109
62.965979160175145	59.31794382356658	1073.115
62.36069984618289	58.4218497045308	1085.3049
61.761243907035045	57.515834286031215	1099.4927
61.16782705772538	56.59963137344585	1115.5757
60.58067030155157	55.67297704455769	1133.4376
59.99999999999999	54.735610317245346	1152.9503
59.42604792856702	53.787273880091085	1173.9739
58.8590513167294	52.827714888604646	1196.3572
58.29925287015328	51.85668582953758	1219.9371
57.74690077310915	50.87394545546753	1244.5385
57.20224866894282	49.87925979145702	1269.9735
56.66555561634145	48.87240321512806	1296.0412
56.13708601903233	47.85315961093413	1322.5275
55.61710952646371	46.821323598745	1349.206
55.10590090294487	45.776701836081465	1375.839
54.60373986267208	44.71911439243896	1402.18
54.11091086804023	43.6483961931151	1427.976
53.62770288864506	42.564398528805846	1452.9723
53.154409118419395	41.46699062595427	1476.9169
52.691326648427214	40.356061271430136	1499.5662
52.23875609296496	39.23152048359226	1520.6917
51.79700116679687	38.09330122015014	1540.0863
51.36636821158484	36.941361111512535	1557.5714
50.94716566986906	35.77568420650932	1573.004
50.539703505316	34.59628271552699	1586.2828
50.14429256838126	33.40319873424199	1597.3539
49.76124390703504	32.19650592930866	1606.2155
49.390868022772075	30.976311165609783	1612.9209
49.03347407277117	29.742756053058372	1617.5804
48.68936901978189	28.496018389510258	1620.3604
48.35885673209022	27.236313475170732	1621.4819
48.04223703674405	25.963895273021652	1621.2156
47.73980473009234	24.679057389323834	1619.8762
47.45184855059514	23.382133848230776	1617.8135
47.178650119779434	22.07349963504216	1615.4034
46.920482858129056	20.753570983684796	1613.036
46.677610883583455	19.422805385675183	1611.1035
46.450287901158305	18.08170130012181	1609.9874
46.23875609296496	16.730797547275397	1610.0453
46.043245018569806	15.370672371723243	1611.5979
45.86397053617525	14.001942165516926	1614.9173
45.701133755495384	12.625259846263035	1620.2161
45.554920033420714	11.241312890415616	1627.6387
45.42549802359849	9.850821027578828	1637.2544
45.31301879088406	8.454533607433808	1649.053
45.21761500123496	7.053226656798624	1662.9435
45.1394001970194	5.647699650155149	1678.7552
45.07846816689916	4.238772022564465	1696.2418
45.03489241843145	2.8272794590735852	1715.0887
45.00872576033472	1.414069999328503	1734.9223
45.0	4.961562726608714e-15	1755.3219
45.00872576033472	358.5859300006715	1775.8339
45.03489241843145	357.17272054092643	1795.9864
45.07846816689916	355.76122797743557	1815.3057
45.1394001970194	354.3523003498448	1833.3325
45.21761500123496	352.94677334320136	1849.6378
45.31301879088406	351.5454663925662	1863.838
45.42549802359848	350.14917897242117	1875.6081
45.554920033420714	348.7586871095844	1884.6933
45.701133755495384	347.374740153737	1890.9172
45.86397053617525	345.99805783448306	1894.1883
46.043245018569806	344.62932762827677	1894.5019
46.238756092964955	343.26920245272464	1891.9399
46.450287901158305	341.91829869987816	1886.6662
46.677610883583455	340.5771946143248	1878.9201
46.920482858129056	339.2464290163152	1869.0053
47.178650119779434	337.92650036495786	1857.278
47.45184855059512	336.61786615176925	1844.1315
47.73980473009234	335.3209426106762	1829.9803
48.04223703674405	334.03610472697835	1815.2427
48.3588567320902	332.76368652482927	1800.324
48.68936901978189	331.50398161048975	1785.5991
49.03347407277117	330.2572439469416	1771.3977
49.39086802277208	329.0236888343902	1757.9902
49.76124390703504	327.80349407069133	1745.5771
50.14429256838125	326.596801265758	1734.2798
50.539703505316005	325.40371728447303	1724.1367
50.94716566986905	324.2243157934907	1715.1009
51.36636821158484	323.05863888848745	1707.0426
51.79700116679685	321.9066987798499	1699.7549
52.23875609296496	320.76847951640775	1692.9627
52.691326648427214	319.6439387285699	1686.3346
53.154409118419395	318.5330093740457	1679.4979
53.62770288864506	317.43560147119416	1672.0546
54.11091086804023	316.3516038068849	1663.6
54.60373986267208	315.28088560756106	1653.7409
55.10590090294487	314.2232981639185	1642.1138
55.617109526463715	313.17867640125496	1628.4032
56.13708601903233	312.14684038906586	1612.3567
56.66555561634144	311.12759678487197	1593.7994
57.20224866894282	310.120740208543	1572.6445
57.74690077310915	309.1260545445325	1548.9007
58.29925287015328	308.1433141704624	1522.6767
58.8590513167294	307.17228511139535	1494.1806
59.42604792856702	306.2127261199089	1463.7165
59.99999999999999	305.26438968275465	1431.6767
60.58067030155157	304.3270229554423	1398.5306
61.16782705772538	303.40036862655415	1364.8103
61.76124390703503	302.4841657139688	1331.0936
62.36069984618289	301.5781502954692	1297.9851
62.96597916017513	300.68205617643343	1266.0959
63.57687134003648	299.7956154974686	1236.0226
64.19317098966519	298.91855928495545	1208.327
64.81467772324949	298.0506179475306	1183.5164
65.44119605454999	297.191521721553	1162.0259
66.0725352792411	296.3410010685859	1144.203
66.70850935139694	295.49878702788453	1130.2953
67.34893675510656	294.6646115268114	1120.442
67.99364037210603	293.83820765201864	1114.6684
68.64244734622547	293.0193098841362	1112.8855
69.29518894536457	292.2076542985965	1114.8929
69.95170042163069	291.40297873510644	1120.3859
70.61182087020094	290.60502293815665	1128.966
71.2753930874019	289.81352867082944	1140.1553
71.94226342843773	289.0282398040422	1153.4128
72.61228166514054	288.2489023832344	1168.1532
73.28530084406377	287.4752646743821	1183.7674
73.96117714519126	286.7070771911018	1199.6429
74.63976974149092	285.9440927044865	1215.1845
75.32094065950206	285.1860662372025	1229.8341
76.00455464110858	284.4327550432674	1243.0886
76.6904790066185	283.6839185748216	1254.516
77.37858351923944	282.93931843711187	1263.7681
78.0687402510143	282.1987183328067	1270.5902
78.76082345025605	281.4618839966795	1274.8275
79.45470941050044	280.72858312160906	1276.4268
80.15027634097487	279.9985852767744	1275.4359
80.84740423856572	279.2716618188454	1271.9979
81.54597476125012	278.54758579690696	1266.3427
82.24587110294536	277.82613185179235	1258.776
82.94697786971682	277.10707611044654	1249.6647
83.64918095727445	276.39019607588716	1239.4212
84.3523674296794	275.67527051328665	1228.486
85.05642539917308	274.96207933265566	1217.3101
85.76124390703502	274.2504034685707	1206.3368
86.4667128053692	273.5400247573564	1195.9848
87.17272263971289	272.83072581210183	1186.6328
87.87916453235917	272.1222898958679	1178.6054
88.58593006627854	271.4145007934176	1172.1621
89.29291116952395	270.7071426817872	1167.4887
90.0	270.0	1164.692
90.70708883047607	269.2928573182127	1163.7974
91.41406993372146	268.5854992065824	1164.7499
92.12083546764083	267.8777101041321	1167.4182
92.82727736028711	267.16927418789817	1171.6018
93.5332871946308	266.4599752426436	1177.0396
94.23875609296496	265.7495965314293	1183.422
94.94357460082692	265.03792066734434	1190.4035
95.64763257032061	264.32472948671335	1197.6167
96.35081904272555	263.60980392411284	1204.6868
97.05302213028318	262.89292388955346	1211.2458
97.75412889705464	262.17386814820765	1216.9463
98.45402523874989	261.45241420309304	1221.4739
99.15259576143428	260.7283381811546	1224.5579
99.84972365902512	260.0014147232256	1225.9808
100.54529058949956	259.27141687839094	1225.5847
101.23917654974393	258.5381160033205	1223.2758
101.93125974898571	257.8012816671933	1219.0264
102.62141648076054	257.06068156288813	1212.8743
103.30952099338153	256.31608142517837	1204.9206
103.99544535889142	255.56724495673262	1195.3242
104.67905934049796	254.8139337627975	1184.2959
105.36023025850908	254.05590729551355	1172.0902
106.03882285480874	253.2929228088982	1158.9959
106.71469915593623	252.52473532561788	1145.327
107.38771833485946	251.7510976167656	1131.4124
108.05773657156229	250.9717601959578	1117.5861
108.7246069125981	250.18647132917056	1104.1778
109.38817912979906	249.39497706184335	1091.5048
110.04829957836931	248.59702126489356	1079.8641
110.70481105463544	247.79234570140352	1069.5265
111.35755265377453	246.98069011586378	1060.7318
112.00635962789397	246.16179234798136	1053.6854
112.65106324489344	245.33538847318857	1048.5563
113.29149064860306	244.50121297211547	1045.4768
113.92746472075892	243.6589989314141	1044.5426
114.55880394545001	242.808478278447	1045.8148
115.18532227675053	241.9493820524694	1049.3219
115.8068290103348	241.08144071504458	1055.0631
116.42312865996352	240.2043845025314	1063.0109
117.03402083982486	239.31794382356657	1073.115
117.63930015381712	238.4218497045308	1085.3049
118.23875609296496	237.5158342860312	1099.4927
118.83217294227461	236.59963137344585	1115.5757
119.41932969844842	235.67297704455768	1133.4376
120.00000000000001	234.73561031724535	1152.9503
120.573952071433	233.78727388009108	1173.9739
121.14094868327061	232.82771488860465	1196.3572
121.70074712984672	231.85668582953755	1219.9371
122.25309922689084	230.87394545546752	1244.5385
122.79775133105717	229.879259791457	1269.9735
123.33444438365854	228.8724032151281	1296.0412
123.86291398096766	227.8531596109341	1322.5275
124.38289047353629	226.82132359874498	1349.206
124.89409909705513	225.7767018360815	1375.839
125.39626013732791	224.71911439243897	1402.18
125.88908913195978	223.64839619311508	1427.976
126.37229711135494	222.56439852880584	1452.9723
126.84559088158062	221.46699062595428	1476.9169
127.30867335157278	220.35606127143015	1499.5662
127.76124390703504	219.23152048359228	1520.6917
128.20299883320317	218.0933012201501	1540.0863
128.6336317884152	216.94136111151252	1557.5714
129.05283433013093	215.7756842065093	1573.004
129.460296494684	214.59628271552702	1586.2828
129.85570743161875	213.40319873424195	1597.3539
130.23875609296496	212.19650592930864	1606.2155
130.60913197722795	210.9763111656098	1612.9209
130.96652592722884	209.74275605305837	1617.5804
131.31063098021812	208.49601838951028	1620.3604
131.6411432679098	207.2363134751707	1621.4819
131.95776296325596	205.96389527302162	1621.2156
132.26019526990768	204.67905738932384	1619.8762
132.54815144940486	203.38213384823078	1617.8135
132.8213498802206	202.07349963504214	1615.4034
133.07951714187095	200.75357098368477	1613.036
133.32238911641656	199.4228053856752	1611.1035
133.5497120988417	198.08170130012184	1609.9874
133.76124390703504	196.73079754727542	1610.0453
133.9567549814302	195.3706723717232	1611.5979
134.13602946382477	194.0019421655169	1614.9173
134.2988662445046	192.62525984626305	1620.2161
134.44507996657927	191.24131289041563	1627.6387
134.57450197640154	189.8508210275788	1637.2544
134.68698120911597	188.4545336074338	1649.053
134.78238499876502	187.0532266567986	1662.9435
134.8605998029806	185.64769965015518	1678.7552
134.92153183310086	184.2387720225645	1696.2418
134.96510758156856	182.82727945907357	1715.0887
134.99127423966527	181.4140699993285	1734.9223
135.0	180.0	1755.3219
134.99127423966527	178.58593000067157	1775.8339
134.96510758156856	177.1727205409264	1795.9864
134.92153183310086	175.76122797743554	1815.3057
134.8605998029806	174.35230034984485	1833.3325
134.78238499876502	172.94677334320141	1849.6378
134.68698120911597	171.54546639256625	1863.838
134.57450197640154	170.14917897242117	1875.6081
134.44507996657927	168.7586871095844	1884.6933
134.2988662445046	167.37474015373698	1890.9172
134.13602946382477	165.9980578344831	1894.1883
133.9567549814302	164.62932762827674	1894.5019
133.76124390703504	163.2692024527246	1891.9399
133.5497120988417	161.9182986998782	1886.6662
133.32238911641656	160.57719461432484	1878.9201
133.07951714187095	159.24642901631526	1869.0053
132.82134988022057	157.92650036495783	1857.278
132.54815144940488	156.61786615176925	1844.1315
132.26019526990768	155.32094261067618	1829.9803
131.95776296325596	154.03610472697838	1815.2427
131.6411432679098	152.76368652482927	1800.324
131.31063098021812	151.50398161048975	1785.5991
130.96652592722884	150.25724394694163	1771.3977
130.60913197722795	149.02368883439024	1757.9902
130.23875609296496	147.80349407069139	1745.5771
129.85570743161873	146.596801265758	1734.2798
129.46029649468403	145.403717284473	1724.1367
129.05283433013096	144.22431579349072	1715.1009
128.6336317884152	143.0586388884875	1707.0426
128.20299883320317	141.90669877984988	1699.7549
127.76124390703505	140.76847951640775	1692.9627
127.3086733515728	139.64393872856988	1686.3346
126.84559088158062	138.53300937404575	1679.4979
126.37229711135495	137.4356014711942	1672.0546
125.88908913195978	136.35160380688492	1663.6
125.39626013732794	135.28088560756106	1653.7409
124.89409909705515	134.22329816391854	1642.1138
124.38289047353632	133.17867640125502	1628.4032
123.86291398096766	132.14684038906586	1612.3567
123.33444438365856	131.12759678487194	1593.7994
122.7977513310572	130.120740208543	1572.6445
122.25309922689087	129.12605454453248	1548.9007
121.70074712984675	128.14331417046245	1522.6767
121.14094868327061	127.17228511139534	1494.1806
120.57395207143298	126.21272611990892	1463.7165
120.00000000000001	125.26438968275468	1431.6767
119.41932969844845	124.32702295544235	1398.5306
118.83217294227461	123.40036862655414	1364.8103
118.23875609296496	122.48416571396879	1331.0936
117.63930015381712	121.57815029546921	1297.9851
117.03402083982486	120.68205617643345	1266.0959
116.42312865996352	119.79561549746859	1236.0226
115.8068290103348	118.91855928495542	1208.327
115.18532227675053	118.05061794753063	1183.5164
114.55880394545002	117.19152172155302	1162.0259
113.92746472075895	116.34100106858591	1144.203
113.29149064860304	115.49878702788452	1130.2953
112.65106324489344	114.66461152681141	1120.442
112.00635962789399	113.83820765201867	1114.6684
111.35755265377455	113.01930988413625	1112.8855
110.70481105463546	112.20765429859652	1114.8929
110.04829957836931	111.40297873510644	1120.3859
109.38817912979906	110.60502293815665	1128.966
108.7246069125981	109.81352867082943	1140.1553
108.05773657156229	109.02823980404222	1153.4128
107.38771833485946	108.2489023832344	1168.1532
106.71469915593623	107.47526467438213	1183.7674
106.03882285480876	106.70707719110183	1199.6429
105.36023025850909	105.94409270448648	1215.1845
104.67905934049797	105.18606623720254	1229.8341
103.99544535889142	104.43275504326738	1243.0886
103.30952099338151	103.68391857482159	1254.516
102.62141648076056	102.93931843711185	1263.7681
101.93125974898572	102.19871833280676	1270.5902
101.23917654974393	101.4618839966795	1274.8275
100.54529058949956	100.72858312160906	1276.4268
99.84972365902513	99.99858527677442	1275.4359
99.15259576143428	99.27166181884544	1271.9979
98.4540252387499	98.54758579690696	1266.3427
97.75412889705464	97.82613185179234	1258.776
97.05302213028318	97.10707611044654	1249.6647
96.35081904272556	96.39019607588716	1239.4212
95.64763257032062	95.67527051328666	1228.486
94.94357460082692	94.96207933265563	1217.3101
94.23875609296496	94.25040346857071	1206.3368
93.53328719463082	93.54002475735638	1195.9848
92.82727736028713	92.83072581210186	1186.6328
92.12083546764086	92.12228989586791	1178.6054
91.41406993372146	91.41450079341756	1172.1621
90.70708883047607	90.70714268178726	1167.4887
90.0	0.0	1085.6484
90.0	1.0	1086.0914
90.0	2.0	1088.4941
90.0	3.0000000000000004	1092.8244
90.0	4.0	1098.9496
90.0	5.0	1106.6415
90.0	6.000000000000001	1115.5845
90.0	7.0	1125.389
90.0	8.0	1135.6063
90.0	9.0	1145.7472
90.0	10.0	1155.3017
90.0	11.0	1163.7599
90.0	12.0	1170.6332
90.0	13.0	1175.4739
90.0	14.0	1177.8947
90.0	14.999999999999998	1177.5844
90.0	16.0	1174.3214
90.0	17.000000000000004	1167.9836
90.0	18.0	1158.5547
90.0	19.0	1146.1255
90.0	20.0	1130.8925
90.0	21.0	1113.1507
90.0	22.0	1093.2845
90.0	23.0	1071.7538
90.0	24.000000000000004	1049.0782
90.0	25.0	1025.8185
90.0	26.0	1002.5574
90.0	26.999999999999996	979.8794
90.0	28.0	958.3505
90.0	29.000000000000004	938.4995
90.0	29.999999999999996	920.8005
90.0	31.0	905.6584
90.0	32.0	893.3962
90.0	33.0	884.2469
90.0	34.00000000000001	878.3479
90.0	35.0	875.7397
90.0	36.0	876.3677
90.0	37.0	880.088
90.0	38.0	886.6762
90.0	39.0	895.8383
90.0	40.0	907.2244
90.0	41.0	920.4436
90.0	42.0	935.0801
90.0	43.0	950.7087
90.0	44.0	966.9103
90.0	45.0	983.2865
90.0	46.00000000000001	999.4719
90.0	47.0	1015.1446
90.0	48.00000000000001	1030.0341
90.0	49.00000000000001	1043.9263
90.0	50.0	1056.6658
90.0	51.0	1068.1555
90.0	52.0	1078.353
90.0	53.0	1087.2655
90.0	54.0	1094.9416
90.0	55.0	1101.4625
90.0	56.0	1106.9318
90.0	57.00000000000001	1111.4647
90.0	58.00000000000001	1115.1777
90.0	59.00000000000001	1118.1788
90.0	59.99999999999999	1120.5589
90.0	61.0	1122.3844
90.0	62.0	1123.6928
90.0	63.0	1124.4893
90.0	64.0	1124.7466
90.0	65.0	1124.4064
90.0	66.0	1123.3838
90.0	67.0	1121.573
90.0	68.0	1118.8552
90.0	69.0	1115.1074
90.0	70.0	1110.2121
90.0	71.0	1104.0674
90.0	72.0	1096.5965
90.0	73.0	1087.7565
90.0	74.0	1077.5461
90.0	75.0	1066.0114
90.0	76.0	1053.2495
90.0	77.0	1039.4099
90.0	78.0	1024.6935
90.0	79.0	1009.3487
90.0	80.0	993.6656
90.0	81.0	977.9675
90.0	82.0	962.601
90.0	83.0	947.9241
90.0	84.0	934.2939
90.0	85.0	922.0533
90.0	86.0	911.5182
90.0	87.0	902.9654
90.0	88.0	896.6217
90.0	89.0	892.6546
90.0	90.0	891.1655
90.0	91.0	892.1856
90.0	92.0	895.6738
90.0	93.0	901.5184
90.0	94.0	909.541
90.0	95.0	919.5034
90.0	96.00000000000001	931.117
90.0	97.0	944.0541
90.0	98.0	957.9605
90.0	99.0	972.47
90.0	100.0	987.2182
90.0	101.0	1001.8568
90.0	102.0	1016.0672
90.0	103.0	1029.5718
90.0	104.0	1042.1447
90.0	105.00000000000001	1053.6185
90.0	106.0	1063.8895
90.0	107.0	1072.9197
90.0	108.0	1080.7352
90.0	109.0	1087.4226
90.0	110.0	1093.1214
90.0	111.0	1098.015
90.0	112.0	1102.3189
90.0	113.0	1106.2678
90.0	114.00000000000001	1110.1013
90.0	115.0	1114.0498
90.0	116.00000000000001	1118.3204
90.0	117.0	1123.0843
90.0	118.00000000000001	1128.465
90.0	119.0	1134.5297
90.0	119.99999999999999	1141.2826
90.0	121.0	1148.6618
90.0	122.0	1156.539
90.0	123.00000000000001	1164.7226
90.0	124.0	1172.9641
90.0	125.00000000000001	1180.9676
90.0	126.0	1188.4014
90.0	127.00000000000001	1194.9126
90.0	128.0	1200.1428
90.0	129.0	1203.744
90.0	130.0	1205.3962
90.0	131.0	1204.8233
90.0	132.0	1201.8076
90.0	133.0	1196.2034
90.0	134.0	1187.9468
90.0	135.0	1177.0631
90.0	136.0	1163.6704
90.0	137.0	1147.9799
90.0	138.0	1130.2915
90.0	139.0	1110.9868
90.0	140.0	1090.5176
90.0	141.0	1069.392
90.0	142.0	1048.1572
90.0	143.0	1027.3811
90.0	144.0	1007.6319
90.0	145.0	989.4579
90.0	146.0	973.3675
90.0	147.0	959.8101
90.0	148.0	949.1593
90.0	149.0	941.6987
90.0	150.0	937.6109
90.0	151.0	936.9706
90.0	152.0	939.741
90.0	153.0	945.7753
90.0	154.0	954.8218
90.0	155.0	966.5337
90.0	156.0	980.4814
90.0	157.0	996.1695
90.0	158.0	1013.055
90.0	159.0	1030.5682
90.0	160.0	1048.134
90.0	161.0	1065.1938
90.0	162.0	1081.2262
90.0	163.0	1095.7663
90.0	164.0	1108.4228
90.0	165.0	1118.8921
90.0	166.0	1126.9679
90.0	167.0	1132.5482
90.0	168.0	1135.637
90.0	169.0	1136.3419
90.0	170.0	1134.8678
90.0	171.0	1131.5064
90.0	172.0	1126.6219
90.0	173.0	1120.6344
90.0	174.0	1114.0009
90.0	175.0	1107.1942
90.0	176.0	1100.6825
90.0	177.0	1094.9082
90.0	178.0	1090.268
90.0	179.0	1087.0961
90.0	180.0	1085.6484
90.0	181.0	1086.0914
90.0	181.99999999999997	1088.4941
90.0	182.99999999999997	1092.8244
90.0	183.99999999999997	1098.9496
90.0	184.99999999999997	1106.6415
90.0	185.99999999999997	1115.5845
90.0	186.99999999999997	1125.389
90.0	188.0	1135.6063
90.0	188.99999999999997	1145.7472
90.0	190.0	1155.3017
90.0	190.99999999999997	1163.7599
90.0	192.0	1170.6332
90.0	192.99999999999997	1175.4739
90.0	193.99999999999997	1177.8947
90.0	194.99999999999997	1177.5844
90.0	195.99999999999997	1174.3214
90.0	197.0	1167.9836
90.0	197.99999999999997	1158.5547
90.0	199.0	1146.1255
90.0	199.99999999999997	1130.8925
90.0	201.0	1113.1507
90.0	201.99999999999997	1093.2845
90.0	203.0	1071.7538
90.0	203.99999999999997	1049.0782
90.0	204.99999999999997	1025.8185
90.0	206.0	1002.5574
90.0	206.99999999999997	979.8794
90.0	208.0	958.3505
90.0	208.99999999999997	938.4995
90.0	210.0	920.8005
90.0	210.99999999999997	905.6584
90.0	212.0	893.3962
90.0	212.99999999999997	884.2469
90.0	214.0	878.3479
90.0	215.0	875.7397
90.0	216.0	876.3677
90.0	217.0	880.088
90.0	217.99999999999997	886.6762
90.0	219.00000000000003	895.8383
90.0	219.99999999999997	907.2244
90.0	220.99999999999997	920.4436
90.0	221.99999999999997	935.0801
90.0	223.0	950.7087
90.0	224.0	966.9103
90.0	224.99999999999997	983.2865
90.0	226.0	999.4719
90.0	227.0	1015.1446
90.0	228.0	1030.0341
90.0	229.0	1043.9263
90.0	230.0	1056.6658
90.0	230.99999999999997	1068.1555
90.0	232.00000000000003	1078.353
90.0	233.0	1087.2655
90.0	233.99999999999997	1094.9416
90.0	234.99999999999994	1101.4625
90.0	236.0	1106.9318
90.0	237.0	1111.4647
90.0	238.0	1115.1777
90.0	239.0	1118.1788
90.0	239.99999999999994	1120.5589
90.0	241.0	1122.3844
90.0	242.0	1123.6928
90.0	242.99999999999997	1124.4893
90.0	243.99999999999994	1124.7466
90.0	245.0	1124.4064
90.0	246.0	1123.3838
90.0	247.0	1121.573
90.0	248.0	1118.8552
90.0	248.99999999999997	1115.1074
90.0	250.0	1110.2121
90.0	251.0	1104.0674
90.0	252.0	1096.5965
90.0	252.99999999999997	1087.7565
90.0	254.0	1077.5461
90.0	255.0	1066.0114
90.0	256.0	1053.2495
90.0	257.0	1039.4099
90.0	258.0	1024.6935
90.0	259.0	1009.3487
90.0	260.0	993.6656
90.0	261.0	977.9675
90.0	262.0	962.601
90.0	263.0	947.9241
90.0	264.0	934.2939
90.0	265.0	922.0533
90.0	266.0	911.5182
90.0	267.0	902.9654
90.0	268.0	896.6217
90.0	269.0	892.6546
90.0	270.0	891.1655
90.0	271.0	892.1856
90.0	272.0	895.6738
90.0	273.0	901.5184
90.0	274.0	909.541
90.0	275.0	919.5034
90.0	276.0	931.117
90.0	277.0	944.0541
90.0	278.0	957.9605
90.0	279.0	972.47
90.0	280.0	987.2182
90.0	281.0	1001.8568
90.0	282.0	1016.0672
90.0	283.0	1029.5718
90.0	284.0	1042.1447
90.0	285.0	1053.6185
90.0	286.0	1063.8895
90.0	287.0	1072.9197
90.0	288.0	1080.7352
90.0	289.0	1087.4226
90.0	290.0	1093.1214
90.0	291.0	1098.015
90.0	292.0	1102.3189
90.0	293.0	1106.2678
90.0	294.0	1110.1013
90.0	295.0	1114.0498
90.0	296.0	1118.3204
90.0	297.0	1123.0843
90.0	298.0	1128.465
90.0	299.0	1134.5297
90.0	300.0	1141.2826
90.0	301.0	1148.6618
90.0	302.0	1156.539
90.0	303.0	1164.7226
90.0	304.0	1172.9641
90.0	305.0	1180.9676
90.0	306.0	1188.4014
90.0	307.0	1194.9126
90.0	308.0	1200.1428
90.0	309.0	1203.744
90.0	310.0	1205.3962
90.0	311.0	1204.8233
90.0	311.99999999999994	1201.8076
90.0	313.0	1196.2034
90.0	314.0	1187.9468
90.0	315.0	1177.0631
90.0	316.0	1163.6704
90.0	317.0	1147.9799
90.0	318.0	1130.2915
90.0	319.0	1110.9868
90.0	320.0	1090.5176
90.0	321.0	1069.392
90.0	322.0	1048.1572
90.0	323.0	1027.3811
90.0	324.0	1007.6319
90.0	325.0	989.4579
90.0	326.0	973.3675
90.0	327.0	959.8101
90.0	328.0	949.1593
90.0	329.0	941.6987
90.0	330.0	937.6109
90.0	331.0	936.9706
90.0	332.0	939.741
90.0	333.0	945.7753
90.0	334.0	954.8218
90.0	335.0	966.5337
90.0	336.0	980.4814
90.0	337.0	996.1695
90.0	338.0	1013.055
90.0	338.99999999999994	1030.5682
90.0	340.0	1048.134
90.0	341.0	1065.1938
90.0	342.0	1081.2262
90.0	343.0	1095.7663
90.0	344.0	1108.4228
90.0	345.0	1118.8921
90.0	346.0	1126.9679
90.0	347.0	1132.5482
90.0	347.99999999999994	1135.637
90.0	349.0	1136.3419
90.0	350.0	1134.8678
90.0	351.0	1131.5064
90.0	352.0	1126.6219
90.0	353.0	1120.6344
90.0	354.0	1114.0009
90.0	355.0	1107.1942
90.0	356.0	1100.6825
90.0	356.99999999999994	1094.9082
90.0	358.0	1090.268
90.0	359.0	1087.0961
