Polar Angle 	 Azimuth Angle 	 Intensity 
90.0	45.0	1934.3337
89.0	45.0	1930.2605
88.0	45.0	1921.8347
87.00000000000001	45.0	1909.1468
86.0	45.0	1892.4395
85.0	45.0	1872.1018
84.0	45.0	1848.656
83.0	45.0	1822.7411
82.0	45.0	1795.0905
81.0	45.0	1766.5061
80.0	45.0	1737.8307
79.0	45.0	1709.9185
78.00000000000001	45.0	1683.6056
77.0	45.0	1659.6819
76.0	45.0	1638.8658
75.0	45.0	1621.7823
74.0	45.0	1608.9456
73.0	45.0	1600.747
72.0	45.0	1597.4491
71.0	45.0	1599.1851
70.0	45.0	1605.9649
69.00000000000001	45.0	1617.6865
68.0	45.0	1634.1519
67.0	45.0	1655.0879
66.0	45.0	1680.1694
65.0	45.0	1709.0447
64.0	45.0	1741.3615
63.0	45.0	1776.7915
62.0	45.0	1815.0541
61.0	45.0	1855.9351
60.00000000000001	45.0	1899.3024
59.00000000000001	45.0	1945.1157
58.00000000000001	45.0	1993.43
57.00000000000001	45.0	2044.3938
55.99999999999999	45.0	2098.2395
55.00000000000001	45.0	2155.2689
54.0	45.0	2215.8321
53.00000000000001	45.0	2280.3029
52.0	45.0	2349.0487
51.00000000000001	45.0	2422.4
50.00000000000001	45.0	2500.6173
49.00000000000001	45.0	2583.8592
48.0	45.0	2672.1529
47.0	45.0	2765.3679
46.00000000000001	45.0	2863.1945
45.0	45.0	2965.1289
44.0	45.0	3070.4656
43.0	45.0	3178.2971
42.0	45.0	3287.5226
41.0	45.0	3396.8641
40.00000000000001	45.0	3504.8916
39.0	45.0	3610.0545
37.99999999999999	45.0	3710.7207
37.0	45.0	3805.2193
36.0	45.0	3891.8884
35.0	45.0	3969.1233
34.0	45.0	4035.4268
33.0	45.0	4089.4556
31.99999999999999	45.0	4130.0649
31.0	45.0	4156.3472
30.000000000000004	45.0	4167.6639
29.00000000000001	45.0	4163.67
28.000000000000007	45.0	4144.3288
27.00000000000001	45.0	4109.9175
25.999999999999996	45.0	4061.0229
25.000000000000004	45.0	3998.5269
24.000000000000004	45.0	3923.5836
22.999999999999993	45.0	3837.5866
21.999999999999996	45.0	3742.1305
21.0	45.0	3638.9649
20.00000000000001	45.0	3529.9462
19.000000000000014	45.0	3416.9848
18.00000000000001	45.0	3301.9939
17.000000000000007	45.0	3186.8385
15.999999999999995	45.0	3073.288
14.999999999999996	45.0	2962.9742
14.0	45.0	2857.355
12.999999999999996	45.0	2757.6864
12.000000000000018	45.0	2665.0027
10.999999999999993	45.0	2580.1059
10.000000000000012	45.0	2503.5638
8.999999999999984	45.0	2435.7179
7.999999999999981	45.0	2376.6983
7.000000000000025	45.0	2326.4474
6.000000000000026	45.0	2284.7485
4.999999999999992	45.0	2251.2595
4.000000000000042	45.0	2225.5497
3.0000000000000444	45.0	2207.1375
1.9999999999999472	45.0	2195.5274
0.9999999999999002	45.0	2190.245
0.0	45.0	2190.868
0.9999999999999002	225.0	2197.0512
1.9999999999999472	225.0	2208.5462
3.0000000000000444	225.0	2225.2123
4.000000000000042	225.0	2247.0207
4.999999999999992	225.0	2274.0502
6.000000000000026	225.0	2306.4746
6.9999999999999725	225.0	2344.5443
7.999999999999981	225.0	2388.56
8.999999999999984	225.0	2438.8426
10.000000000000012	225.0	2495.6991
10.999999999999993	225.0	2559.3861
11.999999999999988	225.0	2630.0739
12.999999999999996	225.0	2707.8116
14.0	225.0	2792.4959
14.999999999999996	225.0	2883.8444
15.999999999999995	225.0	2981.3758
16.99999999999999	225.0	3084.3967
17.999999999999986	225.0	3191.9976
18.999999999999996	225.0	3303.0576
19.999999999999993	225.0	3416.2573
21.0	225.0	3530.1013
21.999999999999996	225.0	3642.9489
23.00000000000001	225.0	3753.0505
24.000000000000004	225.0	3858.5922
24.99999999999999	225.0	3957.7424
26.000000000000007	225.0	4048.7027
26.999999999999996	225.0	4129.7589
28.000000000000007	225.0	4199.3308
28.999999999999996	225.0	4256.0192
29.999999999999993	225.0	4298.6483
31.0	225.0	4326.3012
31.99999999999999	225.0	4338.3484
33.0	225.0	4334.4666
34.0	225.0	4314.6494
35.000000000000014	225.0	4279.2062
36.0	225.0	4228.7533
37.000000000000014	225.0	4164.1942
37.99999999999999	225.0	4086.6914
38.99999999999999	225.0	3997.6315
40.00000000000001	225.0	3898.5825
40.999999999999986	225.0	3791.2483
42.0	225.0	3677.4182
43.0	225.0	3558.9171
44.00000000000001	225.0	3437.5554
45.0	225.0	3315.0815
46.000000000000014	225.0	3193.1387
47.0	225.0	3073.2274
47.999999999999986	225.0	2956.674
49.00000000000001	225.0	2844.6076
49.99999999999999	225.0	2737.9446
51.00000000000001	225.0	2637.3821
51.99999999999999	225.0	2543.3989
53.000000000000014	225.0	2456.2651
53.99999999999999	225.0	2376.0578
55.000000000000014	225.0	2302.6837
55.99999999999999	225.0	2235.906
56.999999999999986	225.0	2175.3741
58.00000000000001	225.0	2120.6567
58.99999999999999	225.0	2071.2736
60.00000000000001	225.0	2026.7269
61.0	225.0	1986.5305
62.000000000000014	225.0	1950.2345
63.0	225.0	1917.446
64.00000000000001	225.0	1887.8439
65.0	225.0	1861.1878
65.99999999999999	225.0	1837.3213
67.0	225.0	1816.1686
68.0	225.0	1797.7265
69.00000000000001	225.0	1782.0509
70.0	225.0	1769.2394
71.00000000000001	225.0	1759.4116
72.0	225.0	1752.6873
73.00000000000001	225.0	1749.1643
74.0	225.0	1748.8973
74.99999999999999	225.0	1751.8789
76.0	225.0	1758.0236
77.0	225.0	1767.1561
78.00000000000001	225.0	1779.0042
79.0	225.0	1793.1972
80.00000000000001	225.0	1809.2695
81.0	225.0	1826.6702
82.00000000000001	225.0	1844.7771
83.0	225.0	1862.9155
83.99999999999999	225.0	1880.3811
85.0	225.0	1896.4644
86.0	225.0	1910.4782
87.00000000000001	225.0	1921.784
88.0	225.0	1929.8183
89.00000000000001	225.0	1934.1165
90.0	225.0	1934.3337
91.00000000000001	225.0	1930.2605
92.0	225.0	1921.8347
92.99999999999999	225.0	1909.1468
94.0	225.0	1892.4395
95.0	225.0	1872.1018
96.00000000000001	225.0	1848.656
97.0	225.0	1822.7411
98.00000000000001	225.0	1795.0905
99.0	225.0	1766.5061
100.00000000000001	225.0	1737.8307
101.0	225.0	1709.9185
102.00000000000001	225.0	1683.6056
103.0	225.0	1659.6819
104.0	225.0	1638.8658
105.00000000000001	225.0	1621.7823
106.0	225.0	1608.9456
107.00000000000001	225.0	1600.747
108.0	225.0	1597.4491
109.00000000000001	225.0	1599.1851
110.0	225.0	1605.9649
111.00000000000001	225.0	1617.6865
112.0	225.0	1634.1519
113.0	225.0	1655.0879
114.00000000000001	225.0	1680.1694
115.0	225.0	1709.0447
116.00000000000001	225.0	1741.3615
117.0	225.0	1776.7915
118.00000000000001	225.0	1815.0541
119.0	225.0	1855.9351
120.00000000000001	225.0	1899.3024
121.0	225.0	1945.1157
122.0	225.0	1993.43
123.00000000000001	225.0	2044.3938
124.0	225.0	2098.2395
125.00000000000001	225.0	2155.2689
126.0	225.0	2215.8321
127.00000000000001	225.0	2280.3029
128.0	225.0	2349.0487
129.00000000000003	225.0	2422.4
130.0	225.0	2500.6173
131.0	225.0	2583.8592
132.0	225.0	2672.1529
133.0	225.0	2765.3679
134.0	225.0	2863.1945
135.0	225.0	2965.1289
136.0	225.0	3070.4656
137.0	225.0	3178.2971
138.00000000000003	225.0	3287.5226
139.0	225.0	3396.8641
140.0	225.0	3504.8916
140.99999999999997	225.0	3610.0545
142.00000000000003	225.0	3710.7207
143.0	225.0	3805.2193
144.0	225.0	3891.8884
145.0	225.0	3969.1233
146.00000000000003	225.0	4035.4268
147.00000000000003	225.0	4089.4556
148.0	225.0	4130.0649
149.0	225.0	4156.3472
149.99999999999997	225.0	4167.6639
151.00000000000003	225.0	4163.67
152.0	225.0	4144.3288
153.0	225.0	4109.9175
154.0	225.0	4061.0229
155.00000000000003	225.0	3998.5269
156.00000000000003	225.0	3923.5836
157.0	225.0	3837.5866
158.0	225.0	3742.1305
158.99999999999997	225.0	3638.9649
160.00000000000003	225.0	3529.9462
161.0	225.0	3416.9848
162.0	225.0	3301.9939
163.0	225.0	3186.8385
164.00000000000003	225.0	3073.288
165.00000000000003	225.0	2962.9742
166.0	225.0	2857.355
167.0	225.0	2757.6864
167.99999999999997	225.0	2665.0027
169.00000000000003	225.0	2580.1059
169.99999999999997	225.0	2503.5638
170.99999999999997	225.0	2435.7179
172.0	225.0	2376.6983
173.00000000000003	225.0	2326.4474
174.00000000000003	225.0	2284.7485
175.0	225.0	2251.2595
175.99999999999997	225.0	2225.5497
176.99999999999994	225.0	2207.1375
178.00000000000006	225.0	2195.5274
179.0000000000001	225.0	2190.245
180.0	225.0	2190.868
179.0000000000001	45.0	2197.0512
178.00000000000006	45.0	2208.5462
176.99999999999994	45.0	2225.2123
176.00000000000006	45.0	2247.0207
175.0	45.0	2274.0502
174.00000000000003	45.0	2306.4746
172.99999999999997	45.0	2344.5443
172.0	45.0	2388.56
171.00000000000003	45.0	2438.8426
170.00000000000003	45.0	2495.6991
168.99999999999997	45.0	2559.3861
167.99999999999997	45.0	2630.0739
167.00000000000003	45.0	2707.8116
166.00000000000003	45.0	2792.4959
165.00000000000003	45.0	2883.8444
163.99999999999997	45.0	2981.3758
163.0	45.0	3084.3967
162.00000000000003	45.0	3191.9976
161.00000000000003	45.0	3303.0576
160.0	45.0	3416.2573
159.0	45.0	3530.1013
158.00000000000003	45.0	3642.9489
157.00000000000003	45.0	3753.0505
156.00000000000003	45.0	3858.5922
154.99999999999997	45.0	3957.7424
154.0	45.0	4048.7027
153.00000000000003	45.0	4129.7589
152.0	45.0	4199.3308
150.99999999999997	45.0	4256.0192
150.0	45.0	4298.6483
149.0	45.0	4326.3012
148.0	45.0	4338.3484
147.00000000000003	45.0	4334.4666
146.0	45.0	4314.6494
145.0	45.0	4279.2062
144.00000000000003	45.0	4228.7533
143.0	45.0	4164.1942
142.0	45.0	4086.6914
140.99999999999997	45.0	3997.6315
140.00000000000003	45.0	3898.5825
139.00000000000003	45.0	3791.2483
138.00000000000003	45.0	3677.4182
137.0	45.0	3558.9171
136.0	45.0	3437.5554
135.00000000000003	45.0	3315.0815
134.00000000000003	45.0	3193.1387
132.99999999999997	45.0	3073.2274
131.99999999999997	45.0	2956.674
131.00000000000003	45.0	2844.6076
130.00000000000003	45.0	2737.9446
129.00000000000003	45.0	2637.3821
128.0	45.0	2543.3989
126.99999999999999	45.0	2456.2651
126.00000000000003	45.0	2376.0578
125.00000000000004	45.0	2302.6837
123.99999999999997	45.0	2235.906
122.99999999999999	45.0	2175.3741
122.0	45.0	2120.6567
121.0	45.0	2071.2736
120.00000000000001	45.0	2026.7269
119.0	45.0	1986.5305
118.00000000000001	45.0	1950.2345
117.00000000000003	45.0	1917.446
116.00000000000004	45.0	1887.8439
115.0	45.0	1861.1878
114.00000000000001	45.0	1837.3213
113.00000000000001	45.0	1816.1686
112.00000000000003	45.0	1797.7265
111.00000000000004	45.0	1782.0509
110.0	45.0	1769.2394
109.00000000000001	45.0	1759.4116
108.00000000000003	45.0	1752.6873
107.00000000000004	45.0	1749.1643
106.0	45.0	1748.8973
105.0	45.0	1751.8789
104.00000000000001	45.0	1758.0236
103.00000000000001	45.0	1767.1561
102.00000000000003	45.0	1779.0042
100.99999999999999	45.0	1793.1972
100.0	45.0	1809.2695
99.00000000000001	45.0	1826.6702
98.00000000000003	45.0	1844.7771
96.99999999999999	45.0	1862.9155
96.0	45.0	1880.3811
95.0	45.0	1896.4644
94.00000000000001	45.0	1910.4782
93.00000000000003	45.0	1921.784
91.99999999999999	45.0	1929.8183
91.0	45.0	1934.1165
90.0	0.0	4632.0584
89.29291116952395	0.7071426817872533	4617.9915
88.58593006627854	1.4145007934175506	4583.586
87.87916453235917	2.122289895867879	4529.336
87.1727226397129	2.8307258121018455	4456.114
86.4667128053692	3.540024757356371	4365.1482
85.76124390703504	4.250403468570711	4257.9907
85.05642539917308	4.962079332655645	4136.4757
84.3523674296794	5.675270513286652	4002.6696
83.64918095727445	6.390196075887154	3858.8152
82.94697786971682	7.107076110446535	3707.2712
82.24587110294536	7.826131851792348	3550.4498
81.54597476125012	8.547585796906942	3390.7537
80.84740423856572	9.271661818845425	3230.5152
80.15027634097487	9.998585276774412	3071.9392
79.45470941050044	10.728583121609057	2917.052
78.76082345025607	11.461883996679509	2767.658
78.0687402510143	12.198718332806749	2625.3044
77.37858351923944	12.939318437111838	2491.2561
76.69047900661849	13.683918574821595	2366.4813
76.00455464110858	14.432755043267381	2251.6469
75.32094065950206	15.186066237202516	2147.1253
74.63976974149092	15.944092704486447	2053.0102
73.96117714519126	16.707077191101824	1969.1414
73.28530084406378	17.47526467438212	1895.1382
72.61228166514054	18.2489023832344	1830.4371
71.94226342843773	19.028239804042187	1774.3359
71.27539308740191	19.813528670829413	1726.0387
70.61182087020094	20.605022938156644	1684.7021
69.95170042163069	21.402978735106455	1649.4806
69.29518894536457	22.207654298596484	1619.5679
68.64244734622547	23.019309884136224	1594.2342
67.99364037210603	23.838207652018653	1572.8572
67.34893675510656	24.664611526811417	1554.9456
66.70850935139694	25.498787027884514	1540.1552
66.07253527924108	26.34100106858589	1528.2957
65.44119605454999	27.191521721553002	1519.3299
64.81467772324949	28.05061794753063	1513.364
64.19317098966519	28.918559284955432	1510.6308
63.57687134003648	29.79561549746857	1511.4655
62.965979160175145	30.68205617643342	1516.2776
62.36069984618289	31.5781502954692	1525.5171
61.761243907035045	32.484165713968785	1539.6395
61.16782705772538	33.400368626554155	1559.0696
60.58067030155157	34.32702295544232	1584.1661
59.99999999999999	35.264389682754654	1615.1896
59.42604792856702	36.212726119908915	1652.2733
58.8590513167294	37.17228511139536	1695.4003
58.29925287015328	38.143314170462425	1744.3864
57.74690077310915	39.12605454453247	1798.8709
57.20224866894282	40.12074020854298	1858.3138
56.66555561634145	41.12759678487194	1922.0022
56.13708601903233	42.14684038906587	1989.0629
55.61710952646371	43.178676401255004	2058.4832
55.10590090294487	44.223298163918535	2129.1372
54.60373986267208	45.28088560756104	2199.8172
54.11091086804023	46.3516038068849	2269.2699
53.62770288864506	47.435601471194154	2336.2337
53.154409118419395	48.53300937404573	2399.4784
52.691326648427214	49.643938728569864	2457.8432
52.23875609296496	50.76847951640774	2510.2736
51.79700116679687	51.90669877984987	2555.8537
51.36636821158484	53.05863888848747	2593.8351
50.94716566986906	54.22431579349069	2623.6589
50.539703505316	55.40371728447302	2644.9719
50.14429256838126	56.59680126575802	2657.6354
49.76124390703504	57.80349407069134	2661.7267
49.390868022772075	59.02368883439022	2657.5336
49.03347407277117	60.25724394694163	2645.5416
48.68936901978189	61.503981610489745	2626.4152
48.35885673209022	62.76368652482927	2600.9735
48.04223703674405	64.03610472697835	2570.1616
47.73980473009234	65.32094261067617	2535.0187
47.45184855059514	66.61786615176922	2496.6444
47.178650119779434	67.92650036495783	2456.164
46.920482858129056	69.2464290163152	2414.695
46.677610883583455	70.57719461432482	2373.3154
46.450287901158305	71.91829869987819	2333.0348
46.23875609296496	73.2692024527246	2294.7697
46.043245018569806	74.62932762827676	2259.3233
45.86397053617525	75.99805783448308	2227.3711
45.701133755495384	77.37474015373697	2199.4509
45.554920033420714	78.7586871095844	2175.9597
45.42549802359849	80.14917897242118	2157.1544
45.31301879088406	81.5454663925662	2143.1588
45.21761500123496	82.94677334320139	2133.974
45.1394001970194	84.35230034984485	2129.4924
45.07846816689916	85.76122797743554	2129.5141
45.03489241843145	87.17272054092642	2133.7659
45.00872576033472	88.58593000067151	2141.9193
45.0	90.0	2153.6098
45.00872576033472	91.41406999932849	2168.4535
45.03489241843145	92.82727945907358	2186.0631
45.07846816689916	94.23877202256445	2206.0602
45.1394001970194	95.64769965015516	2228.085
45.21761500123496	97.05322665679864	2251.8022
45.31301879088406	98.45453360743382	2276.9045
45.42549802359848	99.85082102757882	2303.1115
45.554920033420714	101.2413128904156	2330.1663
45.701133755495384	102.62525984626303	2357.8298
45.86397053617525	104.00194216551692	2385.8723
46.043245018569806	105.37067237172324	2414.0649
46.238756092964955	106.73079754727539	2442.1696
46.450287901158305	108.08170130012182	2469.9301
46.677610883583455	109.42280538567519	2497.0642
46.920482858129056	110.7535709836848	2523.2569
47.178650119779434	112.07349963504215	2548.1571
47.45184855059512	113.38213384823077	2571.3767
47.73980473009234	114.67905738932384	2592.4926
48.04223703674405	115.96389527302166	2611.0521
48.3588567320902	117.23631347517073	2626.5823
48.68936901978189	118.49601838951025	2638.6015
49.03347407277117	119.74275605305839	2646.6331
49.39086802277208	120.9763111656098	2650.2225
49.76124390703504	122.19650592930867	2648.9543
50.14429256838125	123.40319873424197	2642.47
50.539703505316005	124.59628271552698	2630.4855
50.94716566986905	125.77568420650928	2612.8075
51.36636821158484	126.94136111151253	2589.3471
51.79700116679685	128.09330122015012	2560.1309
52.23875609296496	129.23152048359225	2525.3084
52.691326648427214	130.35606127143015	2485.1553
53.154409118419395	131.46699062595425	2440.0724
53.62770288864506	132.56439852880584	2390.5801
54.11091086804023	133.64839619311508	2337.3078
54.60373986267208	134.71911439243897	2280.98
55.10590090294487	135.7767018360815	2222.3982
55.617109526463715	136.821323598745	2162.4199
56.13708601903233	137.8531596109341	2101.9353
56.66555561634144	138.87240321512806	2041.843
57.20224866894282	139.879259791457	1983.0253
57.74690077310915	140.87394545546752	1926.3245
58.29925287015328	141.85668582953758	1872.5209
58.8590513167294	142.82771488860465	1822.3139
59.42604792856702	143.7872738800911	1776.3064
59.99999999999999	144.73561031724535	1734.9937
60.58067030155157	145.6729770445577	1698.7579
61.16782705772538	146.59963137344585	1667.8663
61.76124390703503	147.5158342860312	1642.476
62.36069984618289	148.4218497045308	1622.6429
62.96597916017513	149.31794382356657	1608.3357
63.57687134003648	150.20438450253144	1599.453
64.19317098966519	151.08144071504458	1595.8447
64.81467772324949	151.9493820524694	1597.3338
65.44119605454999	152.808478278447	1603.7405
66.0725352792411	153.65899893141415	1614.9047
66.70850935139694	154.5012129721155	1630.7075
67.34893675510656	155.3353884731886	1651.0899
67.99364037210603	156.16179234798136	1676.0673
68.64244734622547	156.98069011586378	1705.7393
69.29518894536457	157.79234570140352	1740.2937
69.95170042163069	158.59702126489356	1780.005
70.61182087020094	159.39497706184335	1825.2257
71.2753930874019	160.1864713291706	1876.3722
71.94226342843773	160.9717601959578	1933.9043
72.61228166514054	161.7510976167656	1998.2992
73.28530084406377	162.52473532561788	2070.0222
73.96117714519126	163.29292280889817	2149.4931
74.63976974149092	164.05590729551355	2237.0514
75.32094065950206	164.8139337627975	2332.9208
76.00455464110858	165.56724495673262	2437.1752
76.6904790066185	166.31608142517842	2549.7073
77.37858351923944	167.06068156288816	2670.2021
78.0687402510143	167.80128166719328	2798.1148
78.76082345025605	168.5381160033205	2932.6577
79.45470941050044	169.27141687839094	3072.7932
80.15027634097487	170.0014147232256	3217.2372
80.84740423856572	170.72833818115458	3364.4701
81.54597476125012	171.45241420309307	3512.7583
82.24587110294536	172.17386814820765	3660.1836
82.94697786971682	172.8929238895535	3804.6817
83.64918095727445	173.60980392411287	3944.087
84.3523674296794	174.32472948671335	4076.1838
85.05642539917308	175.03792066734437	4198.7618
85.76124390703502	175.7495965314293	4309.6737
86.4667128053692	176.45997524264365	4406.894
87.17272263971289	177.16927418789817	4488.5757
87.87916453235917	177.87771010413212	4553.1036
88.58593006627854	178.58549920658245	4599.1433
89.29291116952395	179.29285731821275	4625.6813
90.0	180.0	4632.0584
90.70708883047607	180.70714268178725	4617.9915
91.41406993372146	181.41450079341755	4583.586
92.12083546764083	182.12228989586788	4529.336
92.82727736028711	182.83072581210183	4456.114
93.5332871946308	183.54002475735635	4365.1482
94.23875609296496	184.2504034685707	4257.9907
94.94357460082692	184.96207933265563	4136.4757
95.64763257032061	185.67527051328665	4002.6696
96.35081904272555	186.39019607588713	3858.8152
97.05302213028318	187.1070761104465	3707.2712
97.75412889705464	187.82613185179233	3550.4498
98.45402523874989	188.54758579690696	3390.7537
99.15259576143428	189.27166181884542	3230.5152
99.84972365902512	189.9985852767744	3071.9392
100.54529058949956	190.72858312160906	2917.052
101.23917654974393	191.4618839966795	2767.658
101.93125974898571	192.19871833280675	2625.3044
102.62141648076054	192.93931843711184	2491.2561
103.30952099338153	193.68391857482158	2366.4813
103.99544535889142	194.43275504326738	2251.6469
104.67905934049796	195.18606623720254	2147.1253
105.36023025850908	195.94409270448645	2053.0102
106.03882285480874	196.7070771911018	1969.1414
106.71469915593623	197.4752646743821	1895.1382
107.38771833485946	198.2489023832344	1830.4371
108.05773657156229	199.0282398040422	1774.3359
108.7246069125981	199.8135286708294	1726.0387
109.38817912979906	200.60502293815665	1684.7021
110.04829957836931	201.40297873510644	1649.4806
110.70481105463544	202.20765429859648	1619.5679
111.35755265377453	203.01930988413622	1594.2342
112.00635962789397	203.83820765201864	1572.8572
112.65106324489344	204.6646115268114	1554.9456
113.29149064860306	205.49878702788448	1540.1552
113.92746472075892	206.34100106858588	1528.2957
114.55880394545001	207.191521721553	1519.3299
115.18532227675053	208.05061794753064	1513.364
115.8068290103348	208.91855928495542	1510.6308
116.42312865996352	209.79561549746856	1511.4655
117.03402083982486	210.68205617643343	1516.2776
117.63930015381712	211.5781502954692	1525.5171
118.23875609296496	212.48416571396876	1539.6395
118.83217294227461	213.40036862655413	1559.0696
119.41932969844842	214.32702295544232	1584.1661
120.00000000000001	215.26438968275463	1615.1896
120.573952071433	216.2127261199089	1652.2733
121.14094868327061	217.17228511139535	1695.4003
121.70074712984672	218.14331417046245	1744.3864
122.25309922689084	219.12605454453248	1798.8709
122.79775133105717	220.12074020854297	1858.3138
123.33444438365854	221.1275967848719	1922.0022
123.86291398096766	222.1468403890659	1989.0629
124.38289047353629	223.17867640125502	2058.4832
124.89409909705513	224.2232981639185	2129.1372
125.39626013732791	225.28088560756103	2199.8172
125.88908913195978	226.35160380688492	2269.2699
126.37229711135494	227.43560147119416	2336.2337
126.84559088158062	228.53300937404572	2399.4784
127.30867335157278	229.64393872856982	2457.8432
127.76124390703504	230.7684795164077	2510.2736
128.20299883320317	231.90669877984988	2555.8537
128.6336317884152	233.05863888848748	2593.8351
129.05283433013093	234.2243157934907	2623.6589
129.460296494684	235.40371728447298	2644.9719
129.85570743161875	236.59680126575802	2657.6354
130.23875609296496	237.80349407069136	2661.7267
130.60913197722795	239.0236888343902	2657.5336
130.96652592722884	240.25724394694157	2645.5416
131.31063098021812	241.50398161048972	2626.4152
131.6411432679098	242.7636865248293	2600.9735
131.95776296325596	244.03610472697835	2570.1616
132.26019526990768	245.32094261067616	2535.0187
132.54815144940486	246.6178661517692	2496.6444
132.8213498802206	247.92650036495786	2456.164
133.07951714187095	249.2464290163152	2414.695
133.32238911641656	250.5771946143248	2373.3154
133.5497120988417	251.91829869987816	2333.0348
133.76124390703504	253.26920245272458	2294.7697
133.9567549814302	254.62932762827677	2259.3233
134.13602946382477	255.99805783448306	2227.3711
134.2988662445046	257.374740153737	2199.4509
134.44507996657927	258.75868710958434	2175.9597
134.57450197640154	260.14917897242117	2157.1544
134.68698120911597	261.5454663925662	2143.1588
134.78238499876502	262.94677334320136	2133.974
134.8605998029806	264.3523003498448	2129.4924
134.92153183310086	265.7612279774355	2129.5141
134.96510758156856	267.17272054092643	2133.7659
134.99127423966527	268.5859300006715	2141.9193
135.0	270.0	2153.6098
134.99127423966527	271.4140699993285	2168.4535
134.96510758156856	272.82727945907357	2186.0631
134.92153183310086	274.2387720225645	2206.0602
134.8605998029806	275.6476996501551	2228.085
134.78238499876502	277.0532266567986	2251.8022
134.68698120911597	278.45453360743375	2276.9045
134.57450197640154	279.85082102757883	2303.1115
134.44507996657927	281.2413128904156	2330.1663
134.2988662445046	282.625259846263	2357.8298
134.13602946382477	284.0019421655169	2385.8723
133.9567549814302	285.37067237172323	2414.0649
133.76124390703504	286.7307975472754	2442.1696
133.5497120988417	288.08170130012184	2469.9301
133.32238911641656	289.42280538567513	2497.0642
133.07951714187095	290.75357098368477	2523.2569
132.82134988022057	292.0734996350422	2548.1571
132.54815144940488	293.38213384823075	2571.3767
132.26019526990768	294.6790573893238	2592.4926
131.95776296325596	295.9638952730216	2611.0521
131.6411432679098	297.23631347517073	2626.5823
131.31063098021812	298.49601838951025	2638.6015
130.96652592722884	299.7427560530584	2646.6331
130.60913197722795	300.9763111656098	2650.2225
130.23875609296496	302.1965059293086	2648.9543
129.85570743161873	303.403198734242	2642.47
129.46029649468403	304.59628271552697	2630.4855
129.05283433013096	305.7756842065093	2612.8075
128.6336317884152	306.9413611115125	2589.3471
128.20299883320317	308.0933012201501	2560.1309
127.76124390703505	309.23152048359225	2525.3084
127.3086733515728	310.3560612714301	2485.1553
126.84559088158062	311.4669906259543	2440.0724
126.37229711135495	312.5643985288058	2390.5801
125.88908913195978	313.6483961931151	2337.3078
125.39626013732794	314.71911439243894	2280.98
124.89409909705515	315.77670183608143	2222.3982
124.38289047353632	316.821323598745	2162.4199
123.86291398096766	317.85315961093414	2101.9353
123.33444438365856	318.8724032151281	2041.843
122.7977513310572	319.879259791457	1983.0253
122.25309922689087	320.8739454554675	1926.3245
121.70074712984675	321.8566858295375	1872.5209
121.14094868327061	322.82771488860465	1822.3139
120.57395207143298	323.7872738800911	1776.3064
120.00000000000001	324.73561031724535	1734.9937
119.41932969844845	325.6729770445577	1698.7579
118.83217294227461	326.59963137344585	1667.8663
118.23875609296496	327.51583428603124	1642.476
117.63930015381712	328.4218497045308	1622.6429
117.03402083982486	329.31794382356657	1608.3357
116.42312865996352	330.2043845025314	1599.453
115.8068290103348	331.08144071504455	1595.8447
115.18532227675053	331.9493820524694	1597.3338
114.55880394545002	332.808478278447	1603.7405
113.92746472075895	333.6589989314141	1614.9047
113.29149064860304	334.5012129721155	1630.7075
112.65106324489344	335.3353884731886	1651.0899
112.00635962789399	336.16179234798136	1676.0673
111.35755265377455	336.98069011586375	1705.7393
110.70481105463546	337.79234570140346	1740.2937
110.04829957836931	338.59702126489356	1780.005
109.38817912979906	339.39497706184335	1825.2257
108.7246069125981	340.18647132917056	1876.3722
108.05773657156229	340.9717601959578	1933.9043
107.38771833485946	341.7510976167656	1998.2992
106.71469915593623	342.5247353256179	2070.0222
106.03882285480876	343.2929228088982	2149.4931
105.36023025850909	344.0559072955135	2237.0514
104.67905934049797	344.8139337627975	2332.9208
103.99544535889142	345.5672449567326	2437.1752
103.30952099338151	346.3160814251784	2549.7073
102.62141648076056	347.06068156288813	2670.2021
101.93125974898572	347.8012816671932	2798.1148
101.23917654974393	348.5381160033205	2932.6577
100.54529058949956	349.27141687839094	3072.7932
99.84972365902513	350.0014147232256	3217.2372
99.15259576143428	350.7283381811546	3364.4701
98.4540252387499	351.45241420309304	3512.7583
97.75412889705464	352.17386814820765	3660.1836
97.05302213028318	352.89292388955346	3804.6817
96.35081904272556	353.60980392411284	3944.087
95.64763257032062	354.32472948671335	4076.1838
94.94357460082692	355.03792066734434	4198.7618
94.23875609296496	355.7495965314293	4309.6737
93.53328719463082	356.4599752426436	4406.894
92.82727736028713	357.16927418789817	4488.5757
92.12083546764086	357.8777101041321	4553.1036
91.41406993372146	358.5854992065825	4599.1433
90.70708883047607	359.2928573182127	4625.6813
90.0	90.0	1567.3578
89.29291116952395	89.29285731821274	1563.8593
88.58593006627854	88.58549920658245	1560.5499
87.87916453235917	87.87771010413212	1557.5523
87.1727226397129	87.16927418789815	1555.034
86.4667128053692	86.45997524264364	1553.2005
85.76124390703504	85.74959653142929	1552.2879
85.05642539917308	85.03792066734437	1552.5521
84.3523674296794	84.32472948671335	1554.2575
83.64918095727445	83.60980392411285	1557.6649
82.94697786971682	82.89292388955346	1563.0181
82.24587110294536	82.17386814820766	1570.5315
81.54597476125012	81.45241420309306	1580.3779
80.84740423856572	80.72833818115458	1592.6781
80.15027634097487	80.0014147232256	1607.4913
79.45470941050044	79.27141687839094	1624.8088
78.76082345025607	78.5381160033205	1644.5495
78.0687402510143	77.80128166719327	1666.5582
77.37858351923944	77.06068156288816	1690.6077
76.69047900661849	76.31608142517841	1716.4024
76.00455464110858	75.56724495673262	1743.5863
75.32094065950206	74.81393376279749	1771.7529
74.63976974149092	74.05590729551355	1800.4571
73.96117714519126	73.29292280889818	1829.2299
73.28530084406378	72.52473532561788	1857.5937
72.61228166514054	71.7510976167656	1885.0789
71.94226342843773	70.97176019595781	1911.2404
71.27539308740191	70.18647132917059	1935.6735
70.61182087020094	69.39497706184336	1958.0295
69.95170042163069	68.59702126489356	1978.0281
69.29518894536457	67.79234570140352	1995.4694
68.64244734622547	66.98069011586378	2010.2415
67.99364037210603	66.16179234798135	2022.3264
67.34893675510656	65.33538847318859	2031.8013
66.70850935139694	64.50121297211548	2038.8377
66.07253527924108	63.65899893141411	2043.6964
65.44119605454999	62.808478278447	2046.7189
64.81467772324949	61.94938205246937	2048.3169
64.19317098966519	61.081440715044565	2048.9581
63.57687134003648	60.20438450253143	2049.1503
62.965979160175145	59.31794382356658	2049.4243
62.36069984618289	58.4218497045308	2050.315
61.761243907035045	57.515834286031215	2052.3434
61.16782705772538	56.59963137344585	2055.9982
60.58067030155157	55.67297704455769	2061.7187
59.99999999999999	54.735610317245346	2069.8796
59.42604792856702	53.787273880091085	2080.7783
58.8590513167294	52.827714888604646	2094.6243
58.29925287015328	51.85668582953758	2111.5325
57.74690077310915	50.87394545546753	2131.5192
57.20224866894282	49.87925979145702	2154.502
56.66555561634145	48.87240321512806	2180.3035
56.13708601903233	47.85315961093413	2208.657
55.61710952646371	46.821323598745	2239.2172
55.10590090294487	45.776701836081465	2271.5717
54.60373986267208	44.71911439243896	2305.2556
54.11091086804023	43.6483961931151	2339.768
53.62770288864506	42.564398528805846	2374.5885
53.154409118419395	41.46699062595427	2409.195
52.691326648427214	40.356061271430136	2443.0806
52.23875609296496	39.23152048359226	2475.7699
51.79700116679687	38.09330122015014	2506.8336
51.36636821158484	36.941361111512535	2535.9011
50.94716566986906	35.77568420650932	2562.6708
50.539703505316	34.59628271552699	2586.9175
50.14429256838126	33.40319873424199	2608.4969
49.76124390703504	32.19650592930866	2627.3469
49.390868022772075	30.976311165609783	2643.4857
49.03347407277117	29.742756053058372	2657.008
48.68936901978189	28.496018389510258	2668.0769
48.35885673209022	27.236313475170732	2676.9152
48.04223703674405	25.963895273021652	2683.7939
47.73980473009234	24.679057389323834	2689.0194
47.45184855059514	23.382133848230776	2692.9202
47.178650119779434	22.07349963504216	2695.8333
46.920482858129056	20.753570983684796	2698.091
46.677610883583455	19.422805385675183	2700.0079
46.450287901158305	18.08170130012181	2701.8699
46.23875609296496	16.730797547275397	2703.9246
46.043245018569806	15.370672371723243	2706.3734
45.86397053617525	14.001942165516926	2709.3666
45.701133755495384	12.625259846263035	2712.9999
45.554920033420714	11.241312890415616	2717.3139
45.42549802359849	9.850821027578828	2722.2957
45.31301879088406	8.454533607433808	2727.8826
45.21761500123496	7.053226656798624	2733.9676
45.1394001970194	5.647699650155149	2740.4067
45.07846816689916	4.238772022564465	2747.0269
45.03489241843145	2.8272794590735852	2753.6355
45.00872576033472	1.414069999328503	2760.0292
45.0	4.961562726608714e-15	2766.0035
45.00872576033472	358.5859300006715	2771.3612
45.03489241843145	357.17272054092643	2775.9203
45.07846816689916	355.76122797743557	2779.5204
45.1394001970194	354.3523003498448	2782.0285
45.21761500123496	352.94677334320136	2783.3414
45.31301879088406	351.5454663925662	2783.3889
45.42549802359848	350.14917897242117	2782.1329
45.554920033420714	348.7586871095844	2779.5665
45.701133755495384	347.374740153737	2775.7112
45.86397053617525	345.99805783448306	2770.6124
46.043245018569806	344.62932762827677	2764.3347
46.238756092964955	343.26920245272464	2756.9562
46.450287901158305	341.91829869987816	2748.5621
46.677610883583455	340.5771946143248	2739.2396
46.920482858129056	339.2464290163152	2729.0713
47.178650119779434	337.92650036495786	2718.1312
47.45184855059512	336.61786615176925	2706.4801
47.73980473009234	335.3209426106762	2694.1631
48.04223703674405	334.03610472697835	2681.2081
48.3588567320902	332.76368652482927	2667.6253
48.68936901978189	331.50398161048975	2653.4085
49.03347407277117	330.2572439469416	2638.5375
49.39086802277208	329.0236888343902	2622.9814
49.76124390703504	327.80349407069133	2606.7031
50.14429256838125	326.596801265758	2589.6646
50.539703505316005	325.40371728447303	2571.832
50.94716566986905	324.2243157934907	2553.181
51.36636821158484	323.05863888848745	2533.7024
51.79700116679685	321.9066987798499	2513.4064
52.23875609296496	320.76847951640775	2492.3262
52.691326648427214	319.6439387285699	2470.5209
53.154409118419395	318.5330093740457	2448.0766
53.62770288864506	317.43560147119416	2425.1064
54.11091086804023	316.3516038068849	2401.7485
54.60373986267208	315.28088560756106	2378.1636
55.10590090294487	314.2232981639185	2354.5298
55.617109526463715	313.17867640125496	2331.0377
56.13708601903233	312.14684038906586	2307.883
56.66555561634144	311.12759678487197	2285.2598
57.20224866894282	310.120740208543	2263.3526
57.74690077310915	309.1260545445325	2242.3286
58.29925287015328	308.1433141704624	2222.3306
58.8590513167294	307.17228511139535	2203.4699
59.42604792856702	306.2127261199089	2185.8213
59.99999999999999	305.26438968275465	2169.4182
60.58067030155157	304.3270229554423	2154.2505
61.16782705772538	303.40036862655415	2140.2632
61.76124390703503	302.4841657139688	2127.3574
62.36069984618289	301.5781502954692	2115.3931
62.96597916017513	300.68205617643343	2104.1937
63.57687134003648	299.7956154974686	2093.5524
64.19317098966519	298.91855928495545	2083.2392
64.81467772324949	298.0506179475306	2073.0102
65.44119605454999	297.191521721553	2062.6168
66.0725352792411	296.3410010685859	2051.8156
66.70850935139694	295.49878702788453	2040.3785
67.34893675510656	294.6646115268114	2028.1015
67.99364037210603	293.83820765201864	2014.8141
68.64244734622547	293.0193098841362	2000.3858
69.29518894536457	292.2076542985965	1984.7325
69.95170042163069	291.40297873510644	1967.8199
70.61182087020094	290.60502293815665	1949.666
71.2753930874019	289.81352867082944	1930.3408
71.94226342843773	289.0282398040422	1909.9637
72.61228166514054	288.2489023832344	1888.6998
73.28530084406377	287.4752646743821	1866.753
73.96117714519126	286.7070771911018	1844.359
74.63976974149092	285.9440927044865	1821.7758
75.32094065950206	285.1860662372025	1799.2736
76.00455464110858	284.4327550432674	1777.1249
76.6904790066185	283.6839185748216	1755.5935
77.37858351923944	282.93931843711187	1734.9248
78.0687402510143	282.1987183328067	1715.3365
78.76082345025605	281.4618839966795	1697.0108
79.45470941050044	280.72858312160906	1680.088
80.15027634097487	279.9985852767744	1664.6625
80.84740423856572	279.2716618188454	1650.7803
81.54597476125012	278.54758579690696	1638.439
82.24587110294536	277.82613185179235	1627.5901
82.94697786971682	277.10707611044654	1618.1435
83.64918095727445	276.39019607588716	1609.9735
84.3523674296794	275.67527051328665	1602.9271
85.05642539917308	274.96207933265566	1596.8329
85.76124390703502	274.2504034685707	1591.5115
86.4667128053692	273.5400247573564	1586.7862
87.17272263971289	272.83072581210183	1582.4934
87.87916453235917	272.1222898958679	1578.4924
88.58593006627854	271.4145007934176	1574.6747
89.29291116952395	270.7071426817872	1570.9712
90.0	270.0	1567.3578
90.70708883047607	269.2928573182127	1563.8593
91.41406993372146	268.5854992065824	1560.5499
92.12083546764083	267.8777101041321	1557.5523
92.82727736028711	267.16927418789817	1555.034
93.5332871946308	266.4599752426436	1553.2005
94.23875609296496	265.7495965314293	1552.2879
94.94357460082692	265.03792066734434	1552.5521
95.64763257032061	264.32472948671335	1554.2575
96.35081904272555	263.60980392411284	1557.6649
97.05302213028318	262.89292388955346	1563.0181
97.75412889705464	262.17386814820765	1570.5315
98.45402523874989	261.45241420309304	1580.3779
99.15259576143428	260.7283381811546	1592.6781
99.84972365902512	260.0014147232256	1607.4913
100.54529058949956	259.27141687839094	1624.8088
101.23917654974393	258.5381160033205	1644.5495
101.93125974898571	257.8012816671933	1666.5582
102.62141648076054	257.06068156288813	1690.6077
103.30952099338153	256.31608142517837	1716.4024
103.99544535889142	255.56724495673262	1743.5863
104.67905934049796	254.8139337627975	1771.7529
105.36023025850908	254.05590729551355	1800.4571
106.03882285480874	253.2929228088982	1829.2299
106.71469915593623	252.52473532561788	1857.5937
107.38771833485946	251.7510976167656	1885.0789
108.05773657156229	250.9717601959578	1911.2404
108.7246069125981	250.18647132917056	1935.6735
109.38817912979906	249.39497706184335	1958.0295
110.04829957836931	248.59702126489356	1978.0281
110.70481105463544	247.79234570140352	1995.4694
111.35755265377453	246.98069011586378	2010.2415
112.00635962789397	246.16179234798136	2022.3264
112.65106324489344	245.33538847318857	2031.8013
113.29149064860306	244.50121297211547	2038.8377
113.92746472075892	243.6589989314141	2043.6964
114.55880394545001	242.808478278447	2046.7189
115.18532227675053	241.9493820524694	2048.3169
115.8068290103348	241.08144071504458	2048.9581
116.42312865996352	240.2043845025314	2049.1503
117.03402083982486	239.31794382356657	2049.4243
117.63930015381712	238.4218497045308	2050.315
118.23875609296496	237.5158342860312	2052.3434
118.83217294227461	236.59963137344585	2055.9982
119.41932969844842	235.67297704455768	2061.7187
120.00000000000001	234.73561031724535	2069.8796
120.573952071433	233.78727388009108	2080.7783
121.14094868327061	232.82771488860465	2094.6243
121.70074712984672	231.85668582953755	2111.5325
122.25309922689084	230.87394545546752	2131.5192
122.79775133105717	229.879259791457	2154.502
123.33444438365854	228.8724032151281	2180.3035
123.86291398096766	227.8531596109341	2208.657
124.38289047353629	226.82132359874498	2239.2172
124.89409909705513	225.7767018360815	2271.5717
125.39626013732791	224.71911439243897	2305.2556
125.88908913195978	223.64839619311508	2339.768
126.37229711135494	222.56439852880584	2374.5885
126.84559088158062	221.46699062595428	2409.195
127.30867335157278	220.35606127143015	2443.0806
127.76124390703504	219.23152048359228	2475.7699
128.20299883320317	218.0933012201501	2506.8336
128.6336317884152	216.94136111151252	2535.9011
129.05283433013093	215.7756842065093	2562.6708
129.460296494684	214.59628271552702	2586.9175
129.85570743161875	213.40319873424195	2608.4969
130.23875609296496	212.19650592930864	2627.3469
130.60913197722795	210.9763111656098	2643.4857
130.96652592722884	209.74275605305837	2657.008
131.31063098021812	208.49601838951028	2668.0769
131.6411432679098	207.2363134751707	2676.9152
131.95776296325596	205.96389527302162	2683.7939
132.26019526990768	204.67905738932384	2689.0194
132.54815144940486	203.38213384823078	2692.9202
132.8213498802206	202.07349963504214	2695.8333
133.07951714187095	200.75357098368477	2698.091
133.32238911641656	199.4228053856752	2700.0079
133.5497120988417	198.08170130012184	2701.8699
133.76124390703504	196.73079754727542	2703.9246
133.9567549814302	195.3706723717232	2706.3734
134.13602946382477	194.0019421655169	2709.3666
134.2988662445046	192.62525984626305	2712.9999
134.44507996657927	191.24131289041563	2717.3139
134.57450197640154	189.8508210275788	2722.2957
134.68698120911597	188.4545336074338	2727.8826
134.78238499876502	187.0532266567986	2733.9676
134.8605998029806	185.64769965015518	2740.4067
134.92153183310086	184.2387720225645	2747.0269
134.96510758156856	182.82727945907357	2753.6355
134.99127423966527	181.4140699993285	2760.0292
135.0	180.0	2766.0035
134.99127423966527	178.58593000067157	2771.3612
134.96510758156856	177.1727205409264	2775.9203
134.92153183310086	175.76122797743554	2779.5204
134.8605998029806	174.35230034984485	2782.0285
134.78238499876502	172.94677334320141	2783.3414
134.68698120911597	171.54546639256625	2783.3889
134.57450197640154	170.14917897242117	2782.1329
134.44507996657927	168.7586871095844	2779.5665
134.2988662445046	167.37474015373698	2775.7112
134.13602946382477	165.9980578344831	2770.6124
133.9567549814302	164.62932762827674	2764.3347
133.76124390703504	163.2692024527246	2756.9562
133.5497120988417	161.9182986998782	2748.5621
133.32238911641656	160.57719461432484	2739.2396
133.07951714187095	159.24642901631526	2729.0713
132.82134988022057	157.92650036495783	2718.1312
132.54815144940488	156.61786615176925	2706.4801
132.26019526990768	155.32094261067618	2694.1631
131.95776296325596	154.03610472697838	2681.2081
131.6411432679098	152.76368652482927	2667.6253
131.31063098021812	151.50398161048975	2653.4085
130.96652592722884	150.25724394694163	2638.5375
130.60913197722795	149.02368883439024	2622.9814
130.23875609296496	147.80349407069139	2606.7031
129.85570743161873	146.596801265758	2589.6646
129.46029649468403	145.403717284473	2571.832
129.05283433013096	144.22431579349072	2553.181
128.6336317884152	143.0586388884875	2533.7024
128.20299883320317	141.90669877984988	2513.4064
127.76124390703505	140.76847951640775	2492.3262
127.3086733515728	139.64393872856988	2470.5209
126.84559088158062	138.53300937404575	2448.0766
126.37229711135495	137.4356014711942	2425.1064
125.88908913195978	136.35160380688492	2401.7485
125.39626013732794	135.28088560756106	2378.1636
124.89409909705515	134.22329816391854	2354.5298
124.38289047353632	133.17867640125502	2331.0377
123.86291398096766	132.14684038906586	2307.883
123.33444438365856	131.12759678487194	2285.2598
122.7977513310572	130.120740208543	2263.3526
122.25309922689087	129.12605454453248	2242.3286
121.70074712984675	128.14331417046245	2222.3306
121.14094868327061	127.17228511139534	2203.4699
120.57395207143298	126.21272611990892	2185.8213
120.00000000000001	125.26438968275468	2169.4182
119.41932969844845	124.32702295544235	2154.2505
118.83217294227461	123.40036862655414	2140.2632
118.23875609296496	122.48416571396879	2127.3574
117.63930015381712	121.57815029546921	2115.3931
117.03402083982486	120.68205617643345	2104.1937
116.42312865996352	119.79561549746859	2093.5524
115.8068290103348	118.91855928495542	2083.2392
115.18532227675053	118.05061794753063	2073.0102
114.55880394545002	117.19152172155302	2062.6168
113.92746472075895	116.34100106858591	2051.8156
113.29149064860304	115.49878702788452	2040.3785
112.65106324489344	114.66461152681141	2028.1015
112.00635962789399	113.83820765201867	2014.8141
111.35755265377455	113.01930988413625	2000.3858
110.70481105463546	112.20765429859652	1984.7325
110.04829957836931	111.40297873510644	1967.8199
109.38817912979906	110.60502293815665	1949.666
108.7246069125981	109.81352867082943	1930.3408
108.05773657156229	109.02823980404222	1909.9637
107.38771833485946	108.2489023832344	1888.6998
106.71469915593623	107.47526467438213	1866.753
106.03882285480876	106.70707719110183	1844.359
105.36023025850909	105.94409270448648	1821.7758
104.67905934049797	105.18606623720254	1799.2736
103.99544535889142	104.43275504326738	1777.1249
103.30952099338151	103.68391857482159	1755.5935
102.62141648076056	102.93931843711185	1734.9248
101.93125974898572	102.19871833280676	1715.3365
101.23917654974393	101.4618839966795	1697.0108
100.54529058949956	100.72858312160906	1680.088
99.84972365902513	99.99858527677442	1664.6625
99.15259576143428	99.27166181884544	1650.7803
98.4540252387499	98.54758579690696	1638.439
97.75412889705464	97.82613185179234	1627.5901
97.05302213028318	97.10707611044654	1618.1435
96.35081904272556	96.39019607588716	1609.9735
95.64763257032062	95.67527051328666	1602.9271
94.94357460082692	94.96207933265563	1596.8329
94.23875609296496	94.25040346857071	1591.5115
93.53328719463082	93.54002475735638	1586.7862
92.82727736028713	92.83072581210186	1582.4934
92.12083546764086	92.12228989586791	1578.4924
91.41406993372146	91.41450079341756	1574.6747
90.70708883047607	90.70714268178726	1570.9712
90.0	0.0	4671.0204
90.0	1.0	4675.223
90.0	2.0	4679.7964
90.0	3.0000000000000004	4684.045
90.0	4.0	4687.1564
90.0	5.0	4688.2355
90.0	6.000000000000001	4686.3417
90.0	7.0	4680.5264
90.0	8.0	4669.8712
90.0	9.0	4653.5237
90.0	10.0	4630.7308
90.0	11.0	4600.867
90.0	12.0	4563.4583
90.0	13.0	4518.1995
90.0	14.0	4464.9652
90.0	14.999999999999998	4403.8141
90.0	16.0	4334.9865
90.0	17.000000000000004	4258.8951
90.0	18.0	4176.1106
90.0	19.0	4087.3416
90.0	20.0	3993.4103
90.0	21.0	3895.2257
90.0	22.0	3793.7542
90.0	23.0	3689.9898
90.0	24.000000000000004	3584.9246
90.0	25.0	3479.5213
90.0	26.0	3374.6878
90.0	26.999999999999996	3271.2556
90.0	28.0	3169.9623
90.0	29.000000000000004	3071.4385
90.0	29.999999999999996	2976.2004
90.0	31.0	2884.6459
90.0	32.0	2797.0574
90.0	33.0	2713.6071
90.0	34.00000000000001	2634.3675
90.0	35.0	2559.3245
90.0	36.0	2488.3925
90.0	37.0	2421.4317
90.0	38.0	2358.2653
90.0	39.0	2298.6963
90.0	40.0	2242.5238
90.0	41.0	2189.5567
90.0	42.0	2139.6245
90.0	43.0	2092.5867
90.0	44.0	2048.337
90.0	45.0	2006.8051
90.0	46.00000000000001	1967.9557
90.0	47.0	1931.7832
90.0	48.00000000000001	1898.3049
90.0	49.00000000000001	1867.5516
90.0	50.0	1839.5569
90.0	51.0	1814.3458
90.0	52.0	1791.9233
90.0	53.0	1772.2641
90.0	54.0	1755.3032
90.0	55.0	1740.929
90.0	56.0	1728.979
90.0	57.00000000000001	1719.2382
90.0	58.00000000000001	1711.4408
90.0	59.00000000000001	1705.2749
90.0	59.99999999999999	1700.3904
90.0	61.0	1696.4094
90.0	62.0	1692.9391
90.0	63.0	1689.5863
90.0	64.0	1685.9728
90.0	65.0	1681.7509
90.0	66.0	1676.6189
90.0	67.0	1670.3346
90.0	68.0	1662.7272
90.0	69.0	1653.7066
90.0	70.0	1643.2689
90.0	71.0	1631.499
90.0	72.0	1618.5686
90.0	73.0	1604.7314
90.0	74.0	1590.3132
90.0	75.0	1575.6996
90.0	76.0	1561.3205
90.0	77.0	1547.6318
90.0	78.0	1535.0963
90.0	79.0	1524.1632
90.0	80.0	1515.248
90.0	81.0	1508.7136
90.0	82.0	1504.8532
90.0	83.0	1503.8757
90.0	84.0	1505.8949
90.0	85.0	1510.9221
90.0	86.0	1518.8638
90.0	87.0	1529.523
90.0	88.0	1542.6059
90.0	89.0	1557.7321
90.0	90.0	1574.4491
90.0	91.0	1592.2501
90.0	92.0	1610.5942
90.0	93.0	1628.9285
90.0	94.0	1646.7104
90.0	95.0	1663.4304
90.0	96.00000000000001	1678.6331
90.0	97.0	1691.9363
90.0	98.0	1703.0469
90.0	99.0	1711.7728
90.0	100.0	1718.0312
90.0	101.0	1721.8512
90.0	102.0	1723.372
90.0	103.0	1722.8365
90.0	104.0	1720.5799
90.0	105.00000000000001	1717.014
90.0	106.0	1712.609
90.0	107.0	1707.8715
90.0	108.0	1703.3221
90.0	109.0	1699.4711
90.0	110.0	1696.7961
90.0	111.0	1695.72
90.0	112.0	1696.5926
90.0	113.0	1699.6747
90.0	114.00000000000001	1705.1276
90.0	115.0	1713.0065
90.0	116.00000000000001	1723.26
90.0	117.0	1735.7344
90.0	118.00000000000001	1750.1835
90.0	119.0	1766.2835
90.0	119.99999999999999	1783.6518
90.0	121.0	1801.8701
90.0	122.0	1820.5095
90.0	123.00000000000001	1839.1569
90.0	124.0	1857.4428
90.0	125.00000000000001	1875.0664
90.0	126.0	1891.8202
90.0	127.00000000000001	1907.6102
90.0	128.0	1922.4717
90.0	129.0	1936.5804
90.0	130.0	1950.2566
90.0	131.0	1963.9638
90.0	132.0	1978.3005
90.0	133.0	1993.9847
90.0	134.0	2011.8336
90.0	135.0	2032.737
90.0	136.0	2057.626
90.0	137.0	2087.4391
90.0	138.0	2123.0854
90.0	139.0	2165.4071
90.0	140.0	2215.1434
90.0	141.0	2272.8959
90.0	142.0	2339.0976
90.0	143.0	2413.9878
90.0	144.0	2497.5918
90.0	145.0	2589.7087
90.0	146.0	2689.9057
90.0	147.0	2797.5221
90.0	148.0	2911.6793
90.0	149.0	3031.3008
90.0	150.0	3155.1377
90.0	151.0	3281.8022
90.0	152.0	3409.8048
90.0	153.0	3537.597
90.0	154.0	3663.616
90.0	155.0	3786.3297
90.0	156.0	3904.282
90.0	157.0	4016.1351
90.0	158.0	4120.7082
90.0	159.0	4217.0104
90.0	160.0	4304.2675
90.0	161.0	4381.9413
90.0	162.0	4449.7403
90.0	163.0	4507.622
90.0	164.0	4555.7868
90.0	165.0	4594.6629
90.0	166.0	4624.8841
90.0	167.0	4647.2603
90.0	168.0	4662.7423
90.0	169.0	4672.3821
90.0	170.0	4677.2905
90.0	171.0	4678.5931
90.0	172.0	4677.3872
90.0	173.0	4674.6999
90.0	174.0	4671.4502
90.0	175.0	4668.4161
90.0	176.0	4666.2073
90.0	177.0	4665.245
90.0	178.0	4665.7498
90.0	179.0	4667.7371
90.0	180.0	4671.0204
90.0	181.0	4675.223
90.0	181.99999999999997	4679.7964
90.0	182.99999999999997	4684.045
90.0	183.99999999999997	4687.1564
90.0	184.99999999999997	4688.2355
90.0	185.99999999999997	4686.3417
90.0	186.99999999999997	4680.5264
90.0	188.0	4669.8712
90.0	188.99999999999997	4653.5237
90.0	190.0	4630.7308
90.0	190.99999999999997	4600.867
90.0	192.0	4563.4583
90.0	192.99999999999997	4518.1995
90.0	193.99999999999997	4464.9652
90.0	194.99999999999997	4403.8141
90.0	195.99999999999997	4334.9865
90.0	197.0	4258.8951
90.0	197.99999999999997	4176.1106
90.0	199.0	4087.3416
90.0	199.99999999999997	3993.4103
90.0	201.0	3895.2257
90.0	201.99999999999997	3793.7542
90.0	203.0	3689.9898
90.0	203.99999999999997	3584.9246
90.0	204.99999999999997	3479.5213
90.0	206.0	3374.6878
90.0	206.99999999999997	3271.2556
90.0	208.0	3169.9623
90.0	208.99999999999997	3071.4385
90.0	210.0	2976.2004
90.0	210.99999999999997	2884.6459
90.0	212.0	2797.0574
90.0	212.99999999999997	2713.6071
90.0	214.0	2634.3675
90.0	215.0	2559.3245
90.0	216.0	2488.3925
90.0	217.0	2421.4317
90.0	217.99999999999997	2358.2653
90.0	219.00000000000003	2298.6963
90.0	219.99999999999997	2242.5238
90.0	220.99999999999997	2189.5567
90.0	221.99999999999997	2139.6245
90.0	223.0	2092.5867
90.0	224.0	2048.337
90.0	224.99999999999997	2006.8051
90.0	226.0	1967.9557
90.0	227.0	1931.7832
90.0	228.0	1898.3049
90.0	229.0	1867.5516
90.0	230.0	1839.5569
90.0	230.99999999999997	1814.3458
90.0	232.00000000000003	1791.9233
90.0	233.0	1772.2641
90.0	233.99999999999997	1755.3032
90.0	234.99999999999994	1740.929
90.0	236.0	1728.979
90.0	237.0	1719.2382
90.0	238.0	1711.4408
90.0	239.0	1705.2749
90.0	239.99999999999994	1700.3904
90.0	241.0	1696.4094
90.0	242.0	1692.9391
90.0	242.99999999999997	1689.5863
90.0	243.99999999999994	1685.9728
90.0	245.0	1681.7509
90.0	246.0	1676.6189
90.0	247.0	1670.3346
90.0	248.0	1662.7272
90.0	248.99999999999997	1653.7066
90.0	250.0	1643.2689
90.0	251.0	1631.499
90.0	252.0	1618.5686
90.0	252.99999999999997	1604.7314
90.0	254.0	1590.3132
90.0	255.0	1575.6996
90.0	256.0	1561.3205
90.0	257.0	1547.6318
90.0	258.0	1535.0963
90.0	259.0	1524.1632
90.0	260.0	1515.248
90.0	261.0	1508.7136
90.0	262.0	1504.8532
90.0	263.0	1503.8757
90.0	264.0	1505.8949
90.0	265.0	1510.9221
90.0	266.0	1518.8638
90.0	267.0	1529.523
90.0	268.0	1542.6059
90.0	269.0	1557.7321
90.0	270.0	1574.4491
90.0	271.0	1592.2501
90.0	272.0	1610.5942
90.0	273.0	1628.9285
90.0	274.0	1646.7104
90.0	275.0	1663.4304
90.0	276.0	1678.6331
90.0	277.0	1691.9363
90.0	278.0	1703.0469
90.0	279.0	1711.7728
90.0	280.0	1718.0312
90.0	281.0	1721.8512
90.0	282.0	1723.372
90.0	283.0	1722.8365
90.0	284.0	1720.5799
90.0	285.0	1717.014
90.0	286.0	1712.609
90.0	287.0	1707.8715
90.0	288.0	1703.3221
90.0	289.0	1699.4711
90.0	290.0	1696.7961
90.0	291.0	1695.72
90.0	292.0	1696.5926
90.0	293.0	1699.6747
90.0	294.0	1705.1276
90.0	295.0	1713.0065
90.0	296.0	1723.26
90.0	297.0	1735.7344
90.0	298.0	1750.1835
90.0	299.0	1766.2835
90.0	300.0	1783.6518
90.0	301.0	1801.8701
90.0	302.0	1820.5095
90.0	303.0	1839.1569
90.0	304.0	1857.4428
90.0	305.0	1875.0664
90.0	306.0	1891.8202
90.0	307.0	1907.6102
90.0	308.0	1922.4717
90.0	309.0	1936.5804
90.0	310.0	1950.2566
90.0	311.0	1963.9638
90.0	311.99999999999994	1978.3005
90.0	313.0	1993.9847
90.0	314.0	2011.8336
90.0	315.0	2032.737
90.0	316.0	2057.626
90.0	317.0	2087.4391
90.0	318.0	2123.0854
90.0	319.0	2165.4071
90.0	320.0	2215.1434
90.0	321.0	2272.8959
90.0	322.0	2339.0976
90.0	323.0	2413.9878
90.0	324.0	2497.5918
90.0	325.0	2589.7087
90.0	326.0	2689.9057
90.0	327.0	2797.5221
90.0	328.0	2911.6793
90.0	329.0	3031.3008
90.0	330.0	3155.1377
90.0	331.0	3281.8022
90.0	332.0	3409.8048
90.0	333.0	3537.597
90.0	334.0	3663.616
90.0	335.0	3786.3297
90.0	336.0	3904.282
90.0	337.0	4016.1351
90.0	338.0	4120.7082
90.0	338.99999999999994	4217.0104
90.0	340.0	4304.2675
90.0	341.0	4381.9413
90.0	342.0	4449.7403
90.0	343.0	4507.622
90.0	344.0	4555.7868
90.0	345.0	4594.6629
90.0	346.0	4624.8841
90.0	347.0	4647.2603
90.0	347.99999999999994	4662.7423
90.0	349.0	4672.3821
90.0	350.0	4677.2905
90.0	351.0	4678.5931
90.0	352.0	4677.3872
90.0	353.0	4674.6999
90.0	354.0	4671.4502
90.0	355.0	4668.4161
90.0	356.0	4666.2073
90.0	356.99999999999994	4665.245
90.0	358.0	4665.7498
90.0	359.0	4667.7371
90.0	0.0	4546.9844
89.0	0.0	4521.0081
88.0	0.0	4463.4237
87.00000000000001	0.0	4375.5181
86.0	0.0	4259.3185
85.0	0.0	4117.5273
84.0	0.0	3953.4339
83.0	0.0	3770.8071
82.0	0.0	3573.7727
81.0	0.0	3366.6805
80.0	0.0	3153.9666
79.0	0.0	2940.0151
78.00000000000001	0.0	2729.0255
77.0	0.0	2524.8906
76.0	0.0	2331.0888
75.0	0.0	2150.5958
74.0	0.0	1985.8176
73.0	0.0	1838.548
72.0	0.0	1709.951
71.0	0.0	1600.5685
70.0	0.0	1510.3529
69.00000000000001	0.0	1438.7212
68.0	0.0	1384.6294
67.0	0.0	1346.6628
66.0	0.0	1323.1372
65.0	0.0	1312.2079
64.0	0.0	1311.9806
63.0	0.0	1320.6185
62.0	0.0	1336.4428
61.0	0.0	1358.0205
60.00000000000001	0.0	1384.2359
59.00000000000001	0.0	1414.3442
58.00000000000001	0.0	1448.0028
57.00000000000001	0.0	1485.2804
55.99999999999999	0.0	1526.6444
55.00000000000001	0.0	1572.9247
54.0	0.0	1625.2586
53.00000000000001	0.0	1685.0178
52.0	0.0	1753.7209
51.00000000000001	0.0	1832.9357
50.00000000000001	0.0	1924.1768
49.00000000000001	0.0	2028.8007
48.0	0.0	2147.906
47.0	0.0	2282.2411
46.00000000000001	0.0	2432.1251
45.0	0.0	2597.385
44.0	0.0	2777.3122
43.0	0.0	2970.6401
42.0	0.0	3175.5459
41.0	0.0	3389.674
40.00000000000001	0.0	3610.1832
39.0	0.0	3833.8139
37.99999999999999	0.0	4056.9743
37.0	0.0	4275.8418
36.0	0.0	4486.4748
35.0	0.0	4684.9327
34.0	0.0	4867.3975
33.0	0.0	5030.2925
31.99999999999999	0.0	5170.3953
31.0	0.0	5284.9384
30.000000000000004	0.0	5371.6953
29.00000000000001	0.0	5429.0479
28.000000000000007	0.0	5456.0339
27.00000000000001	0.0	5452.3716
25.999999999999996	0.0	5418.4616
25.000000000000004	0.0	5355.367
24.000000000000004	0.0	5264.771
22.999999999999993	0.0	5148.9162
21.999999999999996	0.0	5010.5268
21.0	0.0	4852.7179
20.00000000000001	0.0	4678.8953
19.000000000000014	0.0	4492.6505
18.00000000000001	0.0	4297.654
17.000000000000007	0.0	4097.5523
15.999999999999995	0.0	3895.8719
14.999999999999996	0.0	3695.9337
14.0	0.0	3500.7802
12.999999999999996	0.0	3313.1198
12.000000000000018	0.0	3135.2862
10.999999999999993	0.0	2969.2174
10.000000000000012	0.0	2816.4506
8.999999999999984	0.0	2678.1349
7.999999999999981	0.0	2555.0582
7.000000000000025	0.0	2447.6871
6.000000000000026	0.0	2356.2155
4.999999999999992	0.0	2280.6213
4.000000000000042	0.0	2220.7244
3.0000000000000444	0.0	2176.2458
1.9999999999999472	0.0	2146.8618
0.9999999999999002	0.0	2132.2518
0.0	0.0	2132.137
0.9999999999999002	180.0	2146.3073
1.9999999999999472	180.0	2174.635
3.0000000000000444	180.0	2217.0758
4.000000000000042	180.0	2273.6551
4.999999999999992	180.0	2344.4429
6.000000000000026	180.0	2429.5168
6.9999999999999725	180.0	2528.9157
7.999999999999981	180.0	2642.5881
8.999999999999984	180.0	2770.3362
10.000000000000012	180.0	2911.7608
10.999999999999993	180.0	3066.2088
11.999999999999988	180.0	3232.7286
12.999999999999996	180.0	3410.0343
14.0	180.0	3596.4829
14.999999999999996	180.0	3790.066
15.999999999999995	180.0	3988.4179
16.99999999999999	180.0	4188.8401
17.999999999999986	180.0	4388.3433
18.999999999999996	180.0	4583.7045
19.999999999999993	180.0	4771.539
21.0	180.0	4948.3852
21.999999999999996	180.0	5110.7965
23.00000000000001	180.0	5255.4412
24.000000000000004	180.0	5379.2025
24.99999999999999	180.0	5479.277
26.000000000000007	180.0	5553.2669
26.999999999999996	180.0	5599.2623
28.000000000000007	180.0	5615.9095
28.999999999999996	180.0	5602.4628
29.999999999999993	180.0	5558.8174
31.0	180.0	5485.5211
31.99999999999999	180.0	5383.7653
33.0	180.0	5255.3531
34.0	180.0	5102.6482
35.000000000000014	180.0	4928.504
36.0	180.0	4736.1769
37.000000000000014	180.0	4529.2266
37.99999999999999	180.0	4311.4067
38.99999999999999	180.0	4086.5515
40.00000000000001	180.0	3858.4604
40.999999999999986	180.0	3630.7882
42.0	180.0	3406.9422
43.0	180.0	3189.9916
44.00000000000001	180.0	2982.5935
45.0	180.0	2786.9355
46.000000000000014	180.0	2604.7006
47.0	180.0	2437.0519
47.999999999999986	180.0	2284.6397
49.00000000000001	180.0	2147.6298
49.99999999999999	180.0	2025.7505
51.00000000000001	180.0	1918.3569
51.99999999999999	180.0	1824.5085
53.000000000000014	180.0	1743.0568
53.99999999999999	180.0	1672.7391
55.000000000000014	180.0	1612.2725
55.99999999999999	180.0	1560.4457
56.999999999999986	180.0	1516.2028
58.00000000000001	180.0	1478.7157
58.99999999999999	180.0	1447.4412
60.00000000000001	180.0	1422.161
61.0	180.0	1403.0014
62.000000000000014	180.0	1390.4326
63.0	180.0	1385.2467
64.00000000000001	180.0	1388.5159
65.0	180.0	1401.5325
65.99999999999999	180.0	1425.7326
67.0	180.0	1462.6085
68.0	180.0	1513.6116
69.00000000000001	180.0	1580.052
70.0	180.0	1662.9995
71.00000000000001	180.0	1763.1885
72.0	180.0	1880.9344
73.00000000000001	180.0	2016.0633
74.0	180.0	2167.8602
74.99999999999999	180.0	2335.0372
76.0	180.0	2515.7257
77.0	180.0	2707.4909
78.00000000000001	180.0	2907.3725
79.0	180.0	3111.9465
80.00000000000001	180.0	3317.4097
81.0	180.0	3519.6824
82.00000000000001	180.0	3714.5253
83.0	180.0	3897.6678
83.99999999999999	180.0	4064.9414
85.0	180.0	4212.4134
86.0	180.0	4336.5173
87.00000000000001	180.0	4434.1716
88.0	180.0	4502.886
89.00000000000001	180.0	4540.8473
90.0	180.0	4546.9844
91.00000000000001	180.0	4521.0081
92.0	180.0	4463.4237
92.99999999999999	180.0	4375.5181
94.0	180.0	4259.3185
95.0	180.0	4117.5273
96.00000000000001	180.0	3953.4339
97.0	180.0	3770.8071
98.00000000000001	180.0	3573.7727
99.0	180.0	3366.6805
100.00000000000001	180.0	3153.9666
101.0	180.0	2940.0151
102.00000000000001	180.0	2729.0255
103.0	180.0	2524.8906
104.0	180.0	2331.0888
105.00000000000001	180.0	2150.5958
106.0	180.0	1985.8176
107.00000000000001	180.0	1838.548
108.0	180.0	1709.951
109.00000000000001	180.0	1600.5685
110.0	180.0	1510.3529
111.00000000000001	180.0	1438.7212
112.0	180.0	1384.6294
113.0	180.0	1346.6628
114.00000000000001	180.0	1323.1372
115.0	180.0	1312.2079
116.00000000000001	180.0	1311.9806
117.0	180.0	1320.6185
118.00000000000001	180.0	1336.4428
119.0	180.0	1358.0205
120.00000000000001	180.0	1384.2359
121.0	180.0	1414.3442
122.0	180.0	1448.0028
123.00000000000001	180.0	1485.2804
124.0	180.0	1526.6444
125.00000000000001	180.0	1572.9247
126.0	180.0	1625.2586
127.00000000000001	180.0	1685.0178
128.0	180.0	1753.7209
129.00000000000003	180.0	1832.9357
130.0	180.0	1924.1768
131.0	180.0	2028.8007
132.0	180.0	2147.906
133.0	180.0	2282.2411
134.0	180.0	2432.1251
135.0	180.0	2597.385
136.0	180.0	2777.3122
137.0	180.0	2970.6401
138.00000000000003	180.0	3175.5459
139.0	180.0	3389.674
140.0	180.0	3610.1832
140.99999999999997	180.0	3833.8139
142.00000000000003	180.0	4056.9743
143.0	180.0	4275.8418
144.0	180.0	4486.4748
145.0	180.0	4684.9327
146.00000000000003	180.0	4867.3975
147.00000000000003	180.0	5030.2925
148.0	180.0	5170.3953
149.0	180.0	5284.9384
149.99999999999997	180.0	5371.6953
151.00000000000003	180.0	5429.0479
152.0	180.0	5456.0339
153.0	180.0	5452.3716
154.0	180.0	5418.4616
155.00000000000003	180.0	5355.367
156.00000000000003	180.0	5264.771
157.0	180.0	5148.9162
158.0	180.0	5010.5268
158.99999999999997	180.0	4852.7179
160.00000000000003	180.0	4678.8953
161.0	180.0	4492.6505
162.0	180.0	4297.654
163.0	180.0	4097.5523
164.00000000000003	180.0	3895.8719
165.00000000000003	180.0	3695.9337
166.0	180.0	3500.7802
167.0	180.0	3313.1198
167.99999999999997	180.0	3135.2862
169.00000000000003	180.0	2969.2174
169.99999999999997	180.0	2816.4506
170.99999999999997	180.0	2678.1349
172.0	180.0	2555.0582
173.00000000000003	180.0	2447.6871
174.00000000000003	180.0	2356.2155
175.0	180.0	2280.6213
175.99999999999997	180.0	2220.7244
176.99999999999994	180.0	2176.2458
178.00000000000006	180.0	2146.8618
179.0000000000001	180.0	2132.2518
180.0	180.0	2132.137
179.0000000000001	0.0	2146.3073
178.00000000000006	0.0	2174.635
176.99999999999994	0.0	2217.0758
176.00000000000006	0.0	2273.6551
175.0	0.0	2344.4429
174.00000000000003	0.0	2429.5168
172.99999999999997	0.0	2528.9157
172.0	0.0	2642.5881
171.00000000000003	0.0	2770.3362
170.00000000000003	0.0	2911.7608
168.99999999999997	0.0	3066.2088
167.99999999999997	0.0	3232.7286
167.00000000000003	0.0	3410.0343
166.00000000000003	0.0	3596.4829
165.00000000000003	0.0	3790.066
163.99999999999997	0.0	3988.4179
163.0	0.0	4188.8401
162.00000000000003	0.0	4388.3433
161.00000000000003	0.0	4583.7045
160.0	0.0	4771.539
159.0	0.0	4948.3852
158.00000000000003	0.0	5110.7965
157.00000000000003	0.0	5255.4412
156.00000000000003	0.0	5379.2025
154.99999999999997	0.0	5479.277
154.0	0.0	5553.2669
153.00000000000003	0.0	5599.2623
152.0	0.0	5615.9095
150.99999999999997	0.0	5602.4628
150.0	0.0	5558.8174
149.0	0.0	5485.5211
148.0	0.0	5383.7653
147.00000000000003	0.0	5255.3531
146.0	0.0	5102.6482
145.0	0.0	4928.504
144.00000000000003	0.0	4736.1769
143.0	0.0	4529.2266
142.0	0.0	4311.4067
140.99999999999997	0.0	4086.5515
140.00000000000003	0.0	3858.4604
139.00000000000003	0.0	3630.7882
138.00000000000003	0.0	3406.9422
137.0	0.0	3189.9916
136.0	0.0	2982.5935
135.00000000000003	0.0	2786.9355
134.00000000000003	0.0	2604.7006
132.99999999999997	0.0	2437.0519
131.99999999999997	0.0	2284.6397
131.00000000000003	0.0	2147.6298
130.00000000000003	0.0	2025.7505
129.00000000000003	0.0	1918.3569
128.0	0.0	1824.5085
126.99999999999999	0.0	1743.0568
126.00000000000003	0.0	1672.7391
125.00000000000004	0.0	1612.2725
123.99999999999997	0.0	1560.4457
122.99999999999999	0.0	1516.2028
122.0	0.0	1478.7157
121.0	0.0	1447.4412
120.00000000000001	0.0	1422.161
119.0	0.0	1403.0014
118.00000000000001	0.0	1390.4326
117.00000000000003	0.0	1385.2467
116.00000000000004	0.0	1388.5159
115.0	0.0	1401.5325
114.00000000000001	0.0	1425.7326
113.00000000000001	0.0	1462.6085
112.00000000000003	0.0	1513.6116
111.00000000000004	0.0	1580.052
110.0	0.0	1662.9995
109.00000000000001	0.0	1763.1885
108.00000000000003	0.0	1880.9344
107.00000000000004	0.0	2016.0633
106.0	0.0	2167.8602
105.0	0.0	2335.0372
104.00000000000001	0.0	2515.7257
103.00000000000001	0.0	2707.4909
102.00000000000003	0.0	2907.3725
100.99999999999999	0.0	3111.9465
100.0	0.0	3317.4097
99.00000000000001	0.0	3519.6824
98.00000000000003	0.0	3714.5253
96.99999999999999	0.0	3897.6678
96.0	0.0	4064.9414
95.0	0.0	4212.4134
94.00000000000001	0.0	4336.5173
93.00000000000003	0.0	4434.1716
91.99999999999999	0.0	4502.886
91.0	0.0	4540.8473
90.0	90.0	1524.7171
89.0	90.0	1520.3703
88.0	90.0	1516.706
87.00000000000001	90.0	1513.8579
86.0	90.0	1512.0035
85.0	90.0	1511.3572
84.0	90.0	1512.1599
83.0	90.0	1514.668
82.0	90.0	1519.1398
81.0	90.0	1525.8217
80.0	90.0	1534.934
79.0	90.0	1546.6572
78.00000000000001	90.0	1561.1188
77.0	90.0	1578.3821
76.0	90.0	1598.4376
75.0	90.0	1621.196
74.0	90.0	1646.4852
73.0	90.0	1674.0497
72.0	90.0	1703.5544
71.0	90.0	1734.5905
70.0	90.0	1766.6855
69.00000000000001	90.0	1799.316
68.0	90.0	1831.9222
67.0	90.0	1863.9255
66.0	90.0	1894.7464
65.0	90.0	1923.8234
64.0	90.0	1950.6319
63.0	90.0	1974.7024
62.0	90.0	1995.6367
61.0	90.0	2013.1222
60.00000000000001	90.0	2026.9438
59.00000000000001	90.0	2036.9916
58.00000000000001	90.0	2043.2661
57.00000000000001	90.0	2045.879
55.99999999999999	90.0	2045.05
55.00000000000001	90.0	2041.1
54.0	90.0	2034.441
53.00000000000001	90.0	2025.562
52.0	90.0	2015.013
51.00000000000001	90.0	2003.3861
50.00000000000001	90.0	1991.2959
49.00000000000001	90.0	1979.3581
48.0	90.0	1968.1693
47.0	90.0	1958.2869
46.00000000000001	90.0	1950.2103
45.0	90.0	1944.365
44.0	90.0	1941.089
43.0	90.0	1940.6224
42.0	90.0	1943.1008
41.0	90.0	1948.5523
40.00000000000001	90.0	1956.8988
39.0	90.0	1967.9605
37.99999999999999	90.0	1981.4644
37.0	90.0	1997.0557
36.0	90.0	2014.3123
35.0	90.0	2032.7613
34.0	90.0	2051.8966
33.0	90.0	2071.1981
31.99999999999999	90.0	2090.1505
31.0	90.0	2108.2613
30.000000000000004	90.0	2125.0781
29.00000000000001	90.0	2140.2036
28.000000000000007	90.0	2153.3083
27.00000000000001	90.0	2164.1406
25.999999999999996	90.0	2172.5331
25.000000000000004	90.0	2178.4065
24.000000000000004	90.0	2181.7697
22.999999999999993	90.0	2182.7161
21.999999999999996	90.0	2181.4184
21.0	90.0	2178.1187
20.00000000000001	90.0	2173.1184
19.000000000000014	90.0	2166.7644
18.00000000000001	90.0	2159.4356
17.000000000000007	90.0	2151.5278
15.999999999999995	90.0	2143.4393
14.999999999999996	90.0	2135.5562
14.0	90.0	2128.2399
12.999999999999996	90.0	2121.8149
12.000000000000018	90.0	2116.5596
10.999999999999993	90.0	2112.6988
10.000000000000012	90.0	2110.3986
8.999999999999984	90.0	2109.764
7.999999999999981	90.0	2110.839
7.000000000000025	90.0	2113.6088
6.000000000000026	90.0	2118.0044
4.999999999999992	90.0	2123.9089
4.000000000000042	90.0	2131.165
3.0000000000000444	90.0	2139.5841
1.9999999999999472	90.0	2148.9552
0.9999999999999002	90.0	2159.0548
0.0	90.0	2169.6557
0.9999999999999002	270.0	2180.5354
1.9999999999999472	270.0	2191.4838
3.0000000000000444	270.0	2202.3092
4.000000000000042	270.0	2212.8425
4.999999999999992	270.0	2222.9407
6.000000000000026	270.0	2232.4875
6.9999999999999725	270.0	2241.3936
7.999999999999981	270.0	2249.5946
8.999999999999984	270.0	2257.0479
10.000000000000012	270.0	2263.7288
10.999999999999993	270.0	2269.6261
11.999999999999988	270.0	2274.7365
12.999999999999996	270.0	2279.0601
14.0	270.0	2282.5959
14.999999999999996	270.0	2285.3375
15.999999999999995	270.0	2287.2701
16.99999999999999	270.0	2288.3691
17.999999999999986	270.0	2288.5989
18.999999999999996	270.0	2287.914
19.999999999999993	270.0	2286.261
21.0	270.0	2283.5815
21.999999999999996	270.0	2279.8169
23.00000000000001	270.0	2274.913
24.000000000000004	270.0	2268.8258
24.99999999999999	270.0	2261.5274
26.000000000000007	270.0	2253.0112
26.999999999999996	270.0	2243.2974
28.000000000000007	270.0	2232.437
28.999999999999996	270.0	2220.5149
29.999999999999993	270.0	2207.6514
31.0	270.0	2194.0025
31.99999999999999	270.0	2179.7579
33.0	270.0	2165.1376
34.0	270.0	2150.3865
35.000000000000014	270.0	2135.7677
36.0	270.0	2121.5544
37.000000000000014	270.0	2108.0203
37.99999999999999	270.0	2095.4295
38.99999999999999	270.0	2084.0268
40.00000000000001	270.0	2074.0267
40.999999999999986	270.0	2065.6042
42.0	270.0	2058.8864
43.0	270.0	2053.9445
44.00000000000001	270.0	2050.7892
45.0	270.0	2049.3673
46.000000000000014	270.0	2049.5602
47.0	270.0	2051.1858
47.999999999999986	270.0	2054.0022
49.00000000000001	270.0	2057.7144
49.99999999999999	270.0	2061.9821
51.00000000000001	270.0	2066.4307
51.99999999999999	270.0	2070.6629
53.000000000000014	270.0	2074.2724
53.99999999999999	270.0	2076.8568
55.000000000000014	270.0	2078.0321
55.99999999999999	270.0	2077.446
56.999999999999986	270.0	2074.7903
58.00000000000001	270.0	2069.8118
58.99999999999999	270.0	2062.3216
60.00000000000001	270.0	2052.2019
61.0	270.0	2039.41
62.000000000000014	270.0	2023.9802
63.0	270.0	2006.0226
64.00000000000001	270.0	1985.7183
65.0	270.0	1963.3139
65.99999999999999	270.0	1939.1115
67.0	270.0	1913.4586
68.0	270.0	1886.735
69.00000000000001	270.0	1859.3399
70.0	270.0	1831.6776
71.00000000000001	270.0	1804.1439
72.0	270.0	1777.1129
73.00000000000001	270.0	1750.9254
74.0	270.0	1725.8783
74.99999999999999	270.0	1702.2169
76.0	270.0	1680.1291
77.0	270.0	1659.7425
78.00000000000001	270.0	1641.1241
79.0	270.0	1624.2829
80.00000000000001	270.0	1609.1749
81.0	270.0	1595.7102
82.00000000000001	270.0	1583.7629
83.0	270.0	1573.1813
83.99999999999999	270.0	1563.8
85.0	270.0	1555.4524
86.0	270.0	1547.9821
87.00000000000001	270.0	1541.255
88.0	270.0	1535.1687
89.00000000000001	270.0	1529.6613
90.0	270.0	1524.7171
91.00000000000001	270.0	1520.3703
92.0	270.0	1516.706
92.99999999999999	270.0	1513.8579
94.0	270.0	1512.0035
95.0	270.0	1511.3572
96.00000000000001	270.0	1512.1599
97.0	270.0	1514.668
98.00000000000001	270.0	1519.1398
99.0	270.0	1525.8217
100.00000000000001	270.0	1534.934
101.0	270.0	1546.6572
102.00000000000001	270.0	1561.1188
103.0	270.0	1578.3821
104.0	270.0	1598.4376
105.00000000000001	270.0	1621.196
106.0	270.0	1646.4852
107.00000000000001	270.0	1674.0497
108.0	270.0	1703.5544
109.00000000000001	270.0	1734.5905
110.0	270.0	1766.6855
111.00000000000001	270.0	1799.316
112.0	270.0	1831.9222
113.0	270.0	1863.9255
114.00000000000001	270.0	1894.7464
115.0	270.0	1923.8234
116.00000000000001	270.0	1950.6319
117.0	270.0	1974.7024
118.00000000000001	270.0	1995.6367
119.0	270.0	2013.1222
120.00000000000001	270.0	2026.9438
121.0	270.0	2036.9916
122.0	270.0	2043.2661
123.00000000000001	270.0	2045.879
124.0	270.0	2045.05
125.00000000000001	270.0	2041.1
126.0	270.0	2034.441
127.00000000000001	270.0	2025.562
128.0	270.0	2015.013
129.00000000000003	270.0	2003.3861
130.0	270.0	1991.2959
131.0	270.0	1979.3581
132.0	270.0	1968.1693
133.0	270.0	1958.2869
134.0	270.0	1950.2103
135.0	270.0	1944.365
136.0	270.0	1941.089
137.0	270.0	1940.6224
138.00000000000003	270.0	1943.1008
139.0	270.0	1948.5523
140.0	270.0	1956.8988
140.99999999999997	270.0	1967.9605
142.00000000000003	270.0	1981.4644
143.0	270.0	1997.0557
144.0	270.0	2014.3123
145.0	270.0	2032.7613
146.00000000000003	270.0	2051.8966
147.00000000000003	270.0	2071.1981
148.0	270.0	2090.1505
149.0	270.0	2108.2613
149.99999999999997	270.0	2125.0781
151.00000000000003	270.0	2140.2036
152.0	270.0	2153.3083
153.0	270.0	2164.1406
154.0	270.0	2172.5331
155.00000000000003	270.0	2178.4065
156.00000000000003	270.0	2181.7697
157.0	270.0	2182.7161
158.0	270.0	2181.4184
158.99999999999997	270.0	2178.1187
160.00000000000003	270.0	2173.1184
161.0	270.0	2166.7644
162.0	270.0	2159.4356
163.0	270.0	2151.5278
164.00000000000003	270.0	2143.4393
165.00000000000003	270.0	2135.5562
166.0	270.0	2128.2399
167.0	270.0	2121.8149
167.99999999999997	270.0	2116.5596
169.00000000000003	270.0	2112.6988
169.99999999999997	270.0	2110.3986
170.99999999999997	270.0	2109.764
172.0	270.0	2110.839
173.00000000000003	270.0	2113.6088
174.00000000000003	270.0	2118.0044
175.0	270.0	2123.9089
175.99999999999997	270.0	2131.165
176.99999999999994	270.0	2139.5841
178.00000000000006	270.0	2148.9552
179.0000000000001	270.0	2159.0548
180.0	270.0	2169.6557
179.0000000000001	90.0	2180.5354
178.00000000000006	90.0	2191.4838
176.99999999999994	90.0	2202.3092
176.00000000000006	90.0	2212.8425
175.0	90.0	2222.9407
174.00000000000003	90.0	2232.4875
172.99999999999997	90.0	2241.3936
172.0	90.0	2249.5946
171.00000000000003	90.0	2257.0479
170.00000000000003	90.0	2263.7288
168.99999999999997	90.0	2269.6261
167.99999999999997	90.0	2274.7365
167.00000000000003	90.0	2279.0601
166.00000000000003	90.0	2282.5959
165.00000000000003	90.0	2285.3375
163.99999999999997	90.0	2287.2701
163.0	90.0	2288.3691
162.00000000000003	90.0	2288.5989
161.00000000000003	90.0	2287.914
160.0	90.0	2286.261
159.0	90.0	2283.5815
158.00000000000003	90.0	2279.8169
157.00000000000003	90.0	2274.913
156.00000000000003	90.0	2268.8258
154.99999999999997	90.0	2261.5274
154.0	90.0	2253.0112
153.00000000000003	90.0	2243.2974
152.0	90.0	2232.437
150.99999999999997	90.0	2220.5149
150.0	90.0	2207.6514
149.0	90.0	2194.0025
148.0	90.0	2179.7579
147.00000000000003	90.0	2165.1376
146.0	90.0	2150.3865
145.0	90.0	2135.7677
144.00000000000003	90.0	2121.5544
143.0	90.0	2108.0203
142.0	90.0	2095.4295
140.99999999999997	90.0	2084.0268
140.00000000000003	90.0	2074.0267
139.00000000000003	90.0	2065.6042
138.00000000000003	90.0	2058.8864
137.0	90.0	2053.9445
136.0	90.0	2050.7892
135.00000000000003	90.0	2049.3673
134.00000000000003	90.0	2049.5602
132.99999999999997	90.0	2051.1858
131.99999999999997	90.0	2054.0022
131.00000000000003	90.0	2057.7144
130.00000000000003	90.0	2061.9821
129.00000000000003	90.0	2066.4307
128.0	90.0	2070.6629
126.99999999999999	90.0	2074.2724
126.00000000000003	90.0	2076.8568
125.00000000000004	90.0	2078.0321
123.99999999999997	90.0	2077.446
122.99999999999999	90.0	2074.7903
122.0	90.0	2069.8118
121.0	90.0	2062.3216
120.00000000000001	90.0	2052.2019
119.0	90.0	2039.41
118.00000000000001	90.0	2023.9802
117.00000000000003	90.0	2006.0226
116.00000000000004	90.0	1985.7183
115.0	90.0	1963.3139
114.00000000000001	90.0	1939.1115
113.00000000000001	90.0	1913.4586
112.00000000000003	90.0	1886.735
111.00000000000004	90.0	1859.3399
110.0	90.0	1831.6776
109.00000000000001	90.0	1804.1439
108.00000000000003	90.0	1777.1129
107.00000000000004	90.0	1750.9254
106.0	90.0	1725.8783
105.0	90.0	1702.2169
104.00000000000001	90.0	1680.1291
103.00000000000001	90.0	1659.7425
102.00000000000003	90.0	1641.1241
100.99999999999999	90.0	1624.2829
100.0	90.0	1609.1749
99.00000000000001	90.0	1595.7102
98.00000000000003	90.0	1583.7629
96.99999999999999	90.0	1573.1813
96.0	90.0	1563.8
95.0	90.0	1555.4524
94.00000000000001	90.0	1547.9821
93.00000000000003	90.0	1541.255
91.99999999999999	90.0	1535.1687
91.0	90.0	1529.6613
